File: Experiments/TUBS/tga_isotherm/tga_isotherm_n2_iso300_piece_3mg_r2.txt
index	ts	t	weight	tr
[#]	[°C]	[s]	[mg]	[°C]
900	1.21941e+02	9.00000e+02	2.97607e+00	9.00000e+01
1061	2.80747e+02	1.06100e+03	2.88529e+00	3.00000e+02
1216	3.00392e+02	1.21600e+03	2.78890e+00	3.00000e+02
1371	3.02884e+02	1.37100e+03	2.72926e+00	3.00000e+02
1526	3.03181e+02	1.52600e+03	2.68650e+00	3.00000e+02
1681	3.03187e+02	1.68100e+03	2.64926e+00	3.00000e+02
1836	3.03178e+02	1.83600e+03	2.61564e+00	3.00000e+02
1991	3.03173e+02	1.99100e+03	2.58461e+00	3.00000e+02
2146	3.03169e+02	2.14600e+03	2.55546e+00	3.00000e+02
2301	3.03170e+02	2.30100e+03	2.52801e+00	3.00000e+02
2456	3.03162e+02	2.45600e+03	2.50200e+00	3.00000e+02
2611	3.03160e+02	2.61100e+03	2.47683e+00	3.00000e+02
2766	3.03157e+02	2.76600e+03	2.45298e+00	3.00000e+02
2921	3.03159e+02	2.92100e+03	2.42980e+00	3.00000e+02
3076	3.03152e+02	3.07600e+03	2.40758e+00	3.00000e+02
3231	3.03162e+02	3.23100e+03	2.38595e+00	3.00000e+02
3386	3.03170e+02	3.38600e+03	2.36490e+00	3.00000e+02
3541	3.03164e+02	3.54100e+03	2.34446e+00	3.00000e+02
3696	3.03167e+02	3.69600e+03	2.32470e+00	3.00000e+02
3851	3.03162e+02	3.85100e+03	2.30542e+00	3.00000e+02
4006	3.03166e+02	4.00600e+03	2.28639e+00	3.00000e+02
4161	3.03145e+02	4.16100e+03	2.26798e+00	3.00000e+02
4316	3.03163e+02	4.31600e+03	2.24991e+00	3.00000e+02
4471	3.03161e+02	4.47100e+03	2.23218e+00	3.00000e+02
4626	3.03155e+02	4.62600e+03	2.21497e+00	3.00000e+02
4781	3.03152e+02	4.78100e+03	2.19759e+00	3.00000e+02
4936	3.03153e+02	4.93600e+03	2.18106e+00	3.00000e+02
5091	3.03155e+02	5.09100e+03	2.16460e+00	3.00000e+02
5246	3.03164e+02	5.24600e+03	2.14842e+00	3.00000e+02
5401	3.03158e+02	5.40100e+03	2.13237e+00	3.00000e+02
5556	3.03167e+02	5.55600e+03	2.11654e+00	3.00000e+02
5711	3.03147e+02	5.71100e+03	2.10122e+00	3.00000e+02
5866	3.03154e+02	5.86600e+03	2.08583e+00	3.00000e+02
6021	3.03146e+02	6.02100e+03	2.07118e+00	3.00000e+02
6176	3.03154e+02	6.17600e+03	2.05628e+00	3.00000e+02
6331	3.03155e+02	6.33100e+03	2.04153e+00	3.00000e+02
6486	3.03149e+02	6.48600e+03	2.02730e+00	3.00000e+02
6641	3.03140e+02	6.64100e+03	2.01282e+00	3.00000e+02
6796	3.03142e+02	6.79600e+03	1.99841e+00	3.00000e+02
6951	3.03152e+02	6.95100e+03	1.98502e+00	3.00000e+02
7106	3.03147e+02	7.10600e+03	1.97146e+00	3.00000e+02
7261	3.03161e+02	7.26100e+03	1.95778e+00	3.00000e+02
7416	3.03143e+02	7.41600e+03	1.94476e+00	3.00000e+02
7571	3.03151e+02	7.57100e+03	1.93163e+00	3.00000e+02
7726	3.03156e+02	7.72600e+03	1.91895e+00	3.00000e+02
7881	3.03153e+02	7.88100e+03	1.90624e+00	3.00000e+02
8036	3.03142e+02	8.03600e+03	1.89374e+00	3.00000e+02
8191	3.03158e+02	8.19100e+03	1.88134e+00	3.00000e+02
8346	3.03157e+02	8.34600e+03	1.86909e+00	3.00000e+02
8501	3.03158e+02	8.50100e+03	1.85705e+00	3.00000e+02
8656	3.03142e+02	8.65600e+03	1.84514e+00	3.00000e+02
8811	3.03139e+02	8.81100e+03	1.83325e+00	3.00000e+02
8966	3.03156e+02	8.96600e+03	1.82165e+00	3.00000e+02
9121	3.03158e+02	9.12100e+03	1.81015e+00	3.00000e+02
9276	3.03151e+02	9.27600e+03	1.79858e+00	3.00000e+02
9431	3.03148e+02	9.43100e+03	1.78728e+00	3.00000e+02
9586	3.03153e+02	9.58600e+03	1.77622e+00	3.00000e+02
9741	3.03153e+02	9.74100e+03	1.76530e+00	3.00000e+02
9896	3.03149e+02	9.89600e+03	1.75451e+00	3.00000e+02
10051	3.03162e+02	1.00510e+04	1.74361e+00	3.00000e+02
10206	3.03159e+02	1.02060e+04	1.73307e+00	3.00000e+02
10361	3.03146e+02	1.03610e+04	1.72263e+00	3.00000e+02
10516	3.03151e+02	1.05160e+04	1.71213e+00	3.00000e+02
10671	3.03150e+02	1.06710e+04	1.70192e+00	3.00000e+02
10826	3.03149e+02	1.08260e+04	1.69143e+00	3.00000e+02
10981	3.03154e+02	1.09810e+04	1.68179e+00	3.00000e+02
11136	3.03164e+02	1.11360e+04	1.67181e+00	3.00000e+02
11291	3.03159e+02	1.12910e+04	1.66207e+00	3.00000e+02
11446	3.03146e+02	1.14460e+04	1.65247e+00	3.00000e+02
11601	3.03162e+02	1.16010e+04	1.64254e+00	3.00000e+02
11756	3.03167e+02	1.17560e+04	1.63321e+00	3.00000e+02
11911	3.03152e+02	1.19110e+04	1.62382e+00	3.00000e+02
12066	3.03158e+02	1.20660e+04	1.61435e+00	3.00000e+02
12221	3.03158e+02	1.22210e+04	1.60530e+00	3.00000e+02
12376	3.03148e+02	1.23760e+04	1.59590e+00	3.00000e+02
12531	3.03155e+02	1.25310e+04	1.58676e+00	3.00000e+02
12686	3.03163e+02	1.26860e+04	1.57771e+00	3.00000e+02
12841	3.03152e+02	1.28410e+04	1.56880e+00	3.00000e+02
12996	3.03165e+02	1.29960e+04	1.55996e+00	3.00000e+02
13151	3.03161e+02	1.31510e+04	1.55148e+00	3.00000e+02
13306	3.03166e+02	1.33060e+04	1.54299e+00	3.00000e+02
13461	3.03179e+02	1.34610e+04	1.53460e+00	3.00000e+02
13616	3.03165e+02	1.36160e+04	1.52627e+00	3.00000e+02
13771	3.03160e+02	1.37710e+04	1.51764e+00	3.00000e+02
13926	3.03157e+02	1.39260e+04	1.50952e+00	3.00000e+02
14081	3.03160e+02	1.40810e+04	1.50147e+00	3.00000e+02
14236	3.03161e+02	1.42360e+04	1.49311e+00	3.00000e+02
14391	3.03166e+02	1.43910e+04	1.48532e+00	3.00000e+02
14546	3.03162e+02	1.45460e+04	1.47726e+00	3.00000e+02
14701	3.03160e+02	1.47010e+04	1.46937e+00	3.00000e+02
14856	3.03161e+02	1.48560e+04	1.46158e+00	3.00000e+02
15011	3.03158e+02	1.50110e+04	1.45392e+00	3.00000e+02
15166	3.03150e+02	1.51660e+04	1.44655e+00	3.00000e+02
15321	3.03147e+02	1.53210e+04	1.43861e+00	3.00000e+02
15476	3.03155e+02	1.54760e+04	1.43124e+00	3.00000e+02
15631	3.03154e+02	1.56310e+04	1.42381e+00	3.00000e+02
15786	3.03157e+02	1.57860e+04	1.41646e+00	3.00000e+02
15941	3.03148e+02	1.59410e+04	1.40911e+00	3.00000e+02
16096	3.03152e+02	1.60960e+04	1.40194e+00	3.00000e+02
16251	3.03169e+02	1.62510e+04	1.39465e+00	3.00000e+02
16406	3.03186e+02	1.64060e+04	1.38739e+00	3.00000e+02
16561	3.03158e+02	1.65610e+04	1.38060e+00	3.00000e+02
16716	3.03154e+02	1.67160e+04	1.37343e+00	3.00000e+02
16871	3.03181e+02	1.68710e+04	1.36660e+00	3.00000e+02
17026	3.03160e+02	1.70260e+04	1.35965e+00	3.00000e+02
17181	3.03157e+02	1.71810e+04	1.35264e+00	3.00000e+02
17336	3.03146e+02	1.73360e+04	1.34601e+00	3.00000e+02
17491	3.03154e+02	1.74910e+04	1.33936e+00	3.00000e+02
17646	3.03160e+02	1.76460e+04	1.33274e+00	3.00000e+02
17801	3.03162e+02	1.78010e+04	1.32623e+00	3.00000e+02
17956	3.03170e+02	1.79560e+04	1.31942e+00	3.00000e+02
18111	3.03159e+02	1.81110e+04	1.31335e+00	3.00000e+02
18266	3.03171e+02	1.82660e+04	1.30705e+00	3.00000e+02
18421	3.03171e+02	1.84210e+04	1.30060e+00	3.00000e+02
18576	3.03169e+02	1.85760e+04	1.29442e+00	3.00000e+02
18731	3.03168e+02	1.87310e+04	1.28847e+00	3.00000e+02
18886	3.03168e+02	1.88860e+04	1.28216e+00	3.00000e+02
19041	3.03148e+02	1.90410e+04	1.27615e+00	3.00000e+02
19196	3.03164e+02	1.91960e+04	1.27000e+00	3.00000e+02
19351	3.03173e+02	1.93510e+04	1.26422e+00	3.00000e+02
19506	3.03160e+02	1.95060e+04	1.25811e+00	3.00000e+02
19661	3.03173e+02	1.96610e+04	1.25243e+00	3.00000e+02
19816	3.03170e+02	1.98160e+04	1.24655e+00	3.00000e+02
19971	3.03161e+02	1.99710e+04	1.24086e+00	3.00000e+02
20126	3.03169e+02	2.01260e+04	1.23494e+00	3.00000e+02
20281	3.03149e+02	2.02810e+04	1.22975e+00	3.00000e+02
20436	3.03159e+02	2.04360e+04	1.22367e+00	3.00000e+02
20591	3.03154e+02	2.05910e+04	1.21812e+00	3.00000e+02
20746	3.03161e+02	2.07460e+04	1.21270e+00	3.00000e+02
20901	3.03155e+02	2.09010e+04	1.20714e+00	3.00000e+02
21056	3.03153e+02	2.10560e+04	1.20200e+00	3.00000e+02
21211	3.03153e+02	2.12110e+04	1.19616e+00	3.00000e+02
21366	3.03160e+02	2.13660e+04	1.19107e+00	3.00000e+02
21521	3.03163e+02	2.15210e+04	1.18593e+00	3.00000e+02
21676	3.03159e+02	2.16760e+04	1.18092e+00	3.00000e+02
21831	3.03169e+02	2.18310e+04	1.17548e+00	3.00000e+02
21986	3.03152e+02	2.19860e+04	1.17036e+00	3.00000e+02
22141	3.03157e+02	2.21410e+04	1.16506e+00	3.00000e+02
22296	3.03154e+02	2.22960e+04	1.16011e+00	3.00000e+02
22451	3.03163e+02	2.24510e+04	1.15508e+00	3.00000e+02
22606	3.03151e+02	2.26060e+04	1.15026e+00	3.00000e+02
22761	3.03154e+02	2.27610e+04	1.14505e+00	3.00000e+02
22916	3.03145e+02	2.29160e+04	1.14020e+00	3.00000e+02
23071	3.03153e+02	2.30710e+04	1.13514e+00	3.00000e+02
23226	3.03147e+02	2.32260e+04	1.13027e+00	3.00000e+02
23381	3.03144e+02	2.33810e+04	1.12540e+00	3.00000e+02
23536	3.03165e+02	2.35360e+04	1.12063e+00	3.00000e+02
23691	3.03164e+02	2.36910e+04	1.11622e+00	3.00000e+02
23846	3.03146e+02	2.38460e+04	1.11145e+00	3.00000e+02
24001	3.03163e+02	2.40010e+04	1.10707e+00	3.00000e+02
24156	3.03159e+02	2.41560e+04	1.10231e+00	3.00000e+02
24311	3.03156e+02	2.43110e+04	1.09809e+00	3.00000e+02
24466	3.03166e+02	2.44660e+04	1.09348e+00	3.00000e+02
24621	3.03144e+02	2.46210e+04	1.08864e+00	3.00000e+02
24776	3.03156e+02	2.47760e+04	1.08436e+00	3.00000e+02
24931	3.03164e+02	2.49310e+04	1.07983e+00	3.00000e+02
25086	3.03154e+02	2.50860e+04	1.07541e+00	3.00000e+02
25241	3.03153e+02	2.52410e+04	1.07122e+00	3.00000e+02
25396	3.03158e+02	2.53960e+04	1.06700e+00	3.00000e+02
25551	3.03165e+02	2.55510e+04	1.06265e+00	3.00000e+02
25706	3.03153e+02	2.57060e+04	1.05817e+00	3.00000e+02
25861	3.03143e+02	2.58610e+04	1.05429e+00	3.00000e+02
26016	3.03157e+02	2.60160e+04	1.04989e+00	3.00000e+02
26171	3.03146e+02	2.61710e+04	1.04585e+00	3.00000e+02
26326	3.03148e+02	2.63260e+04	1.04120e+00	3.00000e+02
26481	3.03145e+02	2.64810e+04	1.03734e+00	3.00000e+02
26636	3.03143e+02	2.66360e+04	1.03343e+00	3.00000e+02
26791	3.03145e+02	2.67910e+04	1.02931e+00	3.00000e+02
26946	3.03148e+02	2.69460e+04	1.02509e+00	3.00000e+02
27101	3.03136e+02	2.71010e+04	1.02097e+00	3.00000e+02
27256	3.03137e+02	2.72560e+04	1.01715e+00	3.00000e+02
27411	3.03132e+02	2.74110e+04	1.01308e+00	3.00000e+02
27566	3.03131e+02	2.75660e+04	1.00936e+00	3.00000e+02
27721	3.03128e+02	2.77210e+04	1.00562e+00	3.00000e+02
27876	3.03120e+02	2.78760e+04	1.00129e+00	3.00000e+02
28031	3.03124e+02	2.80310e+04	9.97397e-01	3.00000e+02
28186	3.03106e+02	2.81860e+04	9.94083e-01	3.00000e+02
28341	3.03105e+02	2.83410e+04	9.90062e-01	3.00000e+02
28496	3.03092e+02	2.84960e+04	9.86140e-01	3.00000e+02
28651	3.03089e+02	2.86510e+04	9.82521e-01	3.00000e+02
28806	3.03083e+02	2.88060e+04	9.79165e-01	3.00000e+02
28961	3.03073e+02	2.89610e+04	9.75174e-01	3.00000e+02
29116	3.03076e+02	2.91160e+04	9.71300e-01	3.00000e+02
29271	3.03077e+02	2.92710e+04	9.68409e-01	3.00000e+02
29426	3.03090e+02	2.94260e+04	9.64521e-01	3.00000e+02
29581	3.03095e+02	2.95810e+04	9.61203e-01	3.00000e+02
29731	3.03088e+02	2.97310e+04	9.57672e-01	3.00000e+02