File: Experiments/TUBS/tga_isotherm/tga_isotherm_n2_iso320_powder_3mg_r3.txt
index	ts	t	weight	tr
[#]	[°C]	[s]	[mg]	[°C]
900	1.22247e+02	9.00000e+02	3.04620e+00	9.00000e+01
1059	2.96013e+02	1.05900e+03	2.86319e+00	3.20000e+02
1214	3.20335e+02	1.21400e+03	2.67991e+00	3.20000e+02
1369	3.23153e+02	1.36900e+03	2.52094e+00	3.20000e+02
1524	3.23416e+02	1.52400e+03	2.37718e+00	3.20000e+02
1679	3.23412e+02	1.67900e+03	2.25223e+00	3.20000e+02
1834	3.23410e+02	1.83400e+03	2.14351e+00	3.20000e+02
1989	3.23381e+02	1.98900e+03	2.04726e+00	3.20000e+02
2144	3.23377e+02	2.14400e+03	1.96099e+00	3.20000e+02
2299	3.23370e+02	2.29900e+03	1.88254e+00	3.20000e+02
2454	3.23373e+02	2.45400e+03	1.81084e+00	3.20000e+02
2609	3.23370e+02	2.60900e+03	1.74570e+00	3.20000e+02
2764	3.23375e+02	2.76400e+03	1.68533e+00	3.20000e+02
2919	3.23369e+02	2.91900e+03	1.62917e+00	3.20000e+02
3074	3.23360e+02	3.07400e+03	1.57712e+00	3.20000e+02
3229	3.23380e+02	3.22900e+03	1.52846e+00	3.20000e+02
3384	3.23377e+02	3.38400e+03	1.48292e+00	3.20000e+02
3539	3.23366e+02	3.53900e+03	1.43976e+00	3.20000e+02
3694	3.23360e+02	3.69400e+03	1.39944e+00	3.20000e+02
3849	3.23369e+02	3.84900e+03	1.36190e+00	3.20000e+02
4004	3.23357e+02	4.00400e+03	1.32579e+00	3.20000e+02
4159	3.23376e+02	4.15900e+03	1.29126e+00	3.20000e+02
4314	3.23358e+02	4.31400e+03	1.25837e+00	3.20000e+02
4469	3.23364e+02	4.46900e+03	1.22745e+00	3.20000e+02
4624	3.23367e+02	4.62400e+03	1.19788e+00	3.20000e+02
4779	3.23356e+02	4.77900e+03	1.16964e+00	3.20000e+02
4934	3.23365e+02	4.93400e+03	1.14244e+00	3.20000e+02
5089	3.23375e+02	5.08900e+03	1.11709e+00	3.20000e+02
5244	3.23363e+02	5.24400e+03	1.09192e+00	3.20000e+02
5399	3.23362e+02	5.39900e+03	1.06791e+00	3.20000e+02
5554	3.23351e+02	5.55400e+03	1.04516e+00	3.20000e+02
5709	3.23362e+02	5.70900e+03	1.02341e+00	3.20000e+02
5864	3.23366e+02	5.86400e+03	1.00231e+00	3.20000e+02
6019	3.23353e+02	6.01900e+03	9.81766e-01	3.20000e+02
6174	3.23354e+02	6.17400e+03	9.62634e-01	3.20000e+02
6329	3.23355e+02	6.32900e+03	9.43251e-01	3.20000e+02
6484	3.23331e+02	6.48400e+03	9.25172e-01	3.20000e+02
6639	3.23342e+02	6.63900e+03	9.07551e-01	3.20000e+02
6794	3.23339e+02	6.79400e+03	8.90489e-01	3.20000e+02
6949	3.23343e+02	6.94900e+03	8.73659e-01	3.20000e+02
7104	3.23355e+02	7.10400e+03	8.57722e-01	3.20000e+02
7259	3.23338e+02	7.25900e+03	8.42223e-01	3.20000e+02
7414	3.23343e+02	7.41400e+03	8.26962e-01	3.20000e+02
7569	3.23339e+02	7.56900e+03	8.12356e-01	3.20000e+02
7724	3.23352e+02	7.72400e+03	7.98468e-01	3.20000e+02
7879	3.23341e+02	7.87900e+03	7.84912e-01	3.20000e+02
8034	3.23343e+02	8.03400e+03	7.71635e-01	3.20000e+02
8189	3.23344e+02	8.18900e+03	7.58858e-01	3.20000e+02
8344	3.23335e+02	8.34400e+03	7.46229e-01	3.20000e+02
8499	3.23349e+02	8.49900e+03	7.34043e-01	3.20000e+02
8654	3.23338e+02	8.65400e+03	7.22030e-01	3.20000e+02
8809	3.23343e+02	8.80900e+03	7.10664e-01	3.20000e+02
8964	3.23341e+02	8.96400e+03	6.99627e-01	3.20000e+02
9119	3.23345e+02	9.11900e+03	6.88794e-01	3.20000e+02
9274	3.23354e+02	9.27400e+03	6.78348e-01	3.20000e+02
9429	3.23335e+02	9.42900e+03	6.67910e-01	3.20000e+02
9584	3.23337e+02	9.58400e+03	6.57583e-01	3.20000e+02
9739	3.23344e+02	9.73900e+03	6.47746e-01	3.20000e+02
9894	3.23330e+02	9.89400e+03	6.38179e-01	3.20000e+02
10049	3.23342e+02	1.00490e+04	6.28894e-01	3.20000e+02
10204	3.23343e+02	1.02040e+04	6.19851e-01	3.20000e+02
10359	3.23341e+02	1.03590e+04	6.10605e-01	3.20000e+02
10514	3.23340e+02	1.05140e+04	6.01889e-01	3.20000e+02
10669	3.23340e+02	1.06690e+04	5.93908e-01	3.20000e+02
10824	3.23344e+02	1.08240e+04	5.85976e-01	3.20000e+02
10979	3.23322e+02	1.09790e+04	5.77762e-01	3.20000e+02
11134	3.23339e+02	1.11340e+04	5.69566e-01	3.20000e+02
11289	3.23345e+02	1.12890e+04	5.62444e-01	3.20000e+02
11444	3.23342e+02	1.14440e+04	5.54742e-01	3.20000e+02
11599	3.23348e+02	1.15990e+04	5.47267e-01	3.20000e+02
11754	3.23339e+02	1.17540e+04	5.40254e-01	3.20000e+02
11909	3.23346e+02	1.19090e+04	5.33364e-01	3.20000e+02
12064	3.23338e+02	1.20640e+04	5.26467e-01	3.20000e+02
12219	3.23343e+02	1.22190e+04	5.19855e-01	3.20000e+02
12374	3.23341e+02	1.23740e+04	5.13339e-01	3.20000e+02
12529	3.23347e+02	1.25290e+04	5.07171e-01	3.20000e+02
12684	3.23359e+02	1.26840e+04	5.00699e-01	3.20000e+02
12839	3.23344e+02	1.28390e+04	4.94692e-01	3.20000e+02
12994	3.23362e+02	1.29940e+04	4.88932e-01	3.20000e+02
13149	3.23343e+02	1.31490e+04	4.82866e-01	3.20000e+02
13304	3.23337e+02	1.33040e+04	4.77129e-01	3.20000e+02
13459	3.23340e+02	1.34590e+04	4.71224e-01	3.20000e+02
13614	3.23345e+02	1.36140e+04	4.66201e-01	3.20000e+02
13769	3.23339e+02	1.37690e+04	4.60847e-01	3.20000e+02
13924	3.23336e+02	1.39240e+04	4.55377e-01	3.20000e+02
14079	3.23342e+02	1.40790e+04	4.50032e-01	3.20000e+02
14234	3.23339e+02	1.42340e+04	4.45227e-01	3.20000e+02
14389	3.23348e+02	1.43890e+04	4.40094e-01	3.20000e+02
14544	3.23333e+02	1.45440e+04	4.35364e-01	3.20000e+02
14699	3.23332e+02	1.46990e+04	4.30349e-01	3.20000e+02
14854	3.23340e+02	1.48540e+04	4.25940e-01	3.20000e+02
15009	3.23326e+02	1.50090e+04	4.21511e-01	3.20000e+02
15164	3.23324e+02	1.51640e+04	4.17054e-01	3.20000e+02
15319	3.23338e+02	1.53190e+04	4.12714e-01	3.20000e+02
15474	3.23317e+02	1.54740e+04	4.08000e-01	3.20000e+02
15629	3.23325e+02	1.56290e+04	4.04058e-01	3.20000e+02
15784	3.23321e+02	1.57840e+04	3.99873e-01	3.20000e+02
15939	3.23323e+02	1.59390e+04	3.95939e-01	3.20000e+02
16094	3.23319e+02	1.60940e+04	3.92037e-01	3.20000e+02
16249	3.23314e+02	1.62490e+04	3.87511e-01	3.20000e+02
16404	3.23322e+02	1.64040e+04	3.83873e-01	3.20000e+02
16559	3.23330e+02	1.65590e+04	3.80040e-01	3.20000e+02
16714	3.23313e+02	1.67140e+04	3.76499e-01	3.20000e+02
16869	3.23318e+02	1.68690e+04	3.73033e-01	3.20000e+02
17024	3.23316e+02	1.70240e+04	3.69526e-01	3.20000e+02
17179	3.23309e+02	1.71790e+04	3.66036e-01	3.20000e+02
17334	3.23303e+02	1.73340e+04	3.62637e-01	3.20000e+02
17489	3.23311e+02	1.74890e+04	3.58995e-01	3.20000e+02
17644	3.23306e+02	1.76440e+04	3.55919e-01	3.20000e+02
17799	3.23294e+02	1.77990e+04	3.52079e-01	3.20000e+02
17954	3.23310e+02	1.79540e+04	3.49281e-01	3.20000e+02
18109	3.23305e+02	1.81090e+04	3.46129e-01	3.20000e+02
18264	3.23294e+02	1.82640e+04	3.42897e-01	3.20000e+02
18419	3.23310e+02	1.84190e+04	3.40010e-01	3.20000e+02
18574	3.23304e+02	1.85740e+04	3.36962e-01	3.20000e+02
18729	3.23290e+02	1.87290e+04	3.34205e-01	3.20000e+02
18884	3.23299e+02	1.88840e+04	3.31325e-01	3.20000e+02
19039	3.23300e+02	1.90390e+04	3.28165e-01	3.20000e+02
19194	3.23301e+02	1.91940e+04	3.25436e-01	3.20000e+02
19349	3.23299e+02	1.93490e+04	3.22635e-01	3.20000e+02
19504	3.23303e+02	1.95040e+04	3.19966e-01	3.20000e+02
19659	3.23282e+02	1.96590e+04	3.17121e-01	3.20000e+02
19814	3.23296e+02	1.98140e+04	3.14439e-01	3.20000e+02
19969	3.23289e+02	1.99690e+04	3.11639e-01	3.20000e+02
20124	3.23290e+02	2.01240e+04	3.09465e-01	3.20000e+02
20279	3.23303e+02	2.02790e+04	3.06850e-01	3.20000e+02
20434	3.23306e+02	2.04340e+04	3.04102e-01	3.20000e+02
20589	3.23308e+02	2.05890e+04	3.02026e-01	3.20000e+02
20744	3.23317e+02	2.07440e+04	2.99335e-01	3.20000e+02
20899	3.23303e+02	2.08990e+04	2.96807e-01	3.20000e+02
21054	3.23291e+02	2.10540e+04	2.94357e-01	3.20000e+02
21209	3.23292e+02	2.12090e+04	2.91851e-01	3.20000e+02
21364	3.23300e+02	2.13640e+04	2.89713e-01	3.20000e+02
21519	3.23297e+02	2.15190e+04	2.87266e-01	3.20000e+02
21674	3.23299e+02	2.16740e+04	2.85313e-01	3.20000e+02
21829	3.23304e+02	2.18290e+04	2.82938e-01	3.20000e+02
21984	3.23296e+02	2.19840e+04	2.80927e-01	3.20000e+02
22139	3.23302e+02	2.21390e+04	2.78645e-01	3.20000e+02
22294	3.23296e+02	2.22940e+04	2.76741e-01	3.20000e+02
22449	3.23299e+02	2.24490e+04	2.74639e-01	3.20000e+02
22604	3.23292e+02	2.26040e+04	2.72705e-01	3.20000e+02
22759	3.23296e+02	2.27590e+04	2.70556e-01	3.20000e+02
22914	3.23288e+02	2.29140e+04	2.68803e-01	3.20000e+02
23069	3.23301e+02	2.30690e+04	2.66836e-01	3.20000e+02
23224	3.23302e+02	2.32240e+04	2.64975e-01	3.20000e+02
23379	3.23293e+02	2.33790e+04	2.63093e-01	3.20000e+02
23534	3.23310e+02	2.35340e+04	2.61429e-01	3.20000e+02
23689	3.23304e+02	2.36890e+04	2.59633e-01	3.20000e+02
23844	3.23294e+02	2.38440e+04	2.57538e-01	3.20000e+02
23999	3.23294e+02	2.39990e+04	2.55464e-01	3.20000e+02
24154	3.23297e+02	2.41540e+04	2.53912e-01	3.20000e+02
24309	3.23313e+02	2.43090e+04	2.52276e-01	3.20000e+02
24464	3.23289e+02	2.44640e+04	2.50532e-01	3.20000e+02
24619	3.23296e+02	2.46190e+04	2.48998e-01	3.20000e+02
24774	3.23307e+02	2.47740e+04	2.47359e-01	3.20000e+02
24929	3.23292e+02	2.49290e+04	2.45398e-01	3.20000e+02
25084	3.23305e+02	2.50840e+04	2.43825e-01	3.20000e+02
25239	3.23296e+02	2.52390e+04	2.42337e-01	3.20000e+02
25394	3.23292e+02	2.53940e+04	2.40686e-01	3.20000e+02
25549	3.23294e+02	2.55490e+04	2.39563e-01	3.20000e+02
25704	3.23290e+02	2.57040e+04	2.37930e-01	3.20000e+02
25859	3.23283e+02	2.58590e+04	2.36230e-01	3.20000e+02
26014	3.23296e+02	2.60140e+04	2.34397e-01	3.20000e+02
26169	3.23294e+02	2.61690e+04	2.33089e-01	3.20000e+02
26324	3.23286e+02	2.63240e+04	2.31471e-01	3.20000e+02
26479	3.23287e+02	2.64790e+04	2.30155e-01	3.20000e+02
26634	3.23274e+02	2.66340e+04	2.28725e-01	3.20000e+02
26789	3.23290e+02	2.67890e+04	2.27249e-01	3.20000e+02
26944	3.23290e+02	2.69440e+04	2.25752e-01	3.20000e+02
27099	3.23281e+02	2.70990e+04	2.24499e-01	3.20000e+02
27254	3.23291e+02	2.72540e+04	2.23145e-01	3.20000e+02
27409	3.23290e+02	2.74090e+04	2.21980e-01	3.20000e+02
27564	3.23298e+02	2.75640e+04	2.20731e-01	3.20000e+02
27719	3.23295e+02	2.77190e+04	2.19276e-01	3.20000e+02
27874	3.23293e+02	2.78740e+04	2.17932e-01	3.20000e+02
28029	3.23282e+02	2.80290e+04	2.16600e-01	3.20000e+02
28184	3.23296e+02	2.81840e+04	2.15230e-01	3.20000e+02
28339	3.23285e+02	2.83390e+04	2.13904e-01	3.20000e+02
28494	3.23292e+02	2.84940e+04	2.12586e-01	3.20000e+02
28649	3.23291e+02	2.86490e+04	2.11456e-01	3.20000e+02
28804	3.23284e+02	2.88040e+04	2.09931e-01	3.20000e+02
28959	3.23296e+02	2.89590e+04	2.08807e-01	3.20000e+02
29114	3.23286e+02	2.91140e+04	2.07556e-01	3.20000e+02
29269	3.23293e+02	2.92690e+04	2.06499e-01	3.20000e+02
29424	3.23288e+02	2.94240e+04	2.05596e-01	3.20000e+02
29579	3.23273e+02	2.95790e+04	2.04130e-01	3.20000e+02
29731	3.23290e+02	2.97310e+04	2.02894e-01	3.20000e+02