File: Experiments/TUBS/tga_isotherm/tga_isotherm_n2_iso320_piece_3mg_r2.txt
index	ts	t	weight	tr
[#]	[°C]	[s]	[mg]	[°C]
900	1.23496e+02	9.00000e+02	2.98384e+00	9.00000e+01
1059	2.96809e+02	1.05900e+03	2.88167e+00	3.20000e+02
1214	3.20364e+02	1.21400e+03	2.72137e+00	3.20000e+02
1369	3.23061e+02	1.36900e+03	2.59176e+00	3.20000e+02
1524	3.23328e+02	1.52400e+03	2.46726e+00	3.20000e+02
1679	3.23343e+02	1.67900e+03	2.35194e+00	3.20000e+02
1834	3.23326e+02	1.83400e+03	2.24632e+00	3.20000e+02
1989	3.23298e+02	1.98900e+03	2.14965e+00	3.20000e+02
2144	3.23289e+02	2.14400e+03	2.06113e+00	3.20000e+02
2299	3.23295e+02	2.29900e+03	1.97944e+00	3.20000e+02
2454	3.23275e+02	2.45400e+03	1.90419e+00	3.20000e+02
2609	3.23267e+02	2.60900e+03	1.83492e+00	3.20000e+02
2764	3.23267e+02	2.76400e+03	1.77022e+00	3.20000e+02
2919	3.23281e+02	2.91900e+03	1.70971e+00	3.20000e+02
3074	3.23270e+02	3.07400e+03	1.65321e+00	3.20000e+02
3229	3.23270e+02	3.22900e+03	1.59982e+00	3.20000e+02
3384	3.23271e+02	3.38400e+03	1.55007e+00	3.20000e+02
3539	3.23271e+02	3.53900e+03	1.50324e+00	3.20000e+02
3694	3.23251e+02	3.69400e+03	1.45846e+00	3.20000e+02
3849	3.23241e+02	3.84900e+03	1.41681e+00	3.20000e+02
4004	3.23252e+02	4.00400e+03	1.37638e+00	3.20000e+02
4159	3.23257e+02	4.15900e+03	1.33845e+00	3.20000e+02
4314	3.23235e+02	4.31400e+03	1.30214e+00	3.20000e+02
4469	3.23254e+02	4.46900e+03	1.26862e+00	3.20000e+02
4624	3.23249e+02	4.62400e+03	1.23472e+00	3.20000e+02
4779	3.23236e+02	4.77900e+03	1.20380e+00	3.20000e+02
4934	3.23241e+02	4.93400e+03	1.17238e+00	3.20000e+02
5089	3.23234e+02	5.08900e+03	1.14359e+00	3.20000e+02
5244	3.23221e+02	5.24400e+03	1.11574e+00	3.20000e+02
5399	3.23230e+02	5.39900e+03	1.08918e+00	3.20000e+02
5554	3.23236e+02	5.55400e+03	1.06331e+00	3.20000e+02
5709	3.23230e+02	5.70900e+03	1.03863e+00	3.20000e+02
5864	3.23210e+02	5.86400e+03	1.01502e+00	3.20000e+02
6019	3.23209e+02	6.01900e+03	9.92037e-01	3.20000e+02
6174	3.23213e+02	6.17400e+03	9.70354e-01	3.20000e+02
6329	3.23215e+02	6.32900e+03	9.48844e-01	3.20000e+02
6484	3.23201e+02	6.48400e+03	9.28432e-01	3.20000e+02
6639	3.23211e+02	6.63900e+03	9.08763e-01	3.20000e+02
6794	3.23201e+02	6.79400e+03	8.89887e-01	3.20000e+02
6949	3.23211e+02	6.94900e+03	8.71451e-01	3.20000e+02
7104	3.23205e+02	7.10400e+03	8.53814e-01	3.20000e+02
7259	3.23201e+02	7.25900e+03	8.36694e-01	3.20000e+02
7414	3.23196e+02	7.41400e+03	8.20030e-01	3.20000e+02
7569	3.23192e+02	7.56900e+03	8.03909e-01	3.20000e+02
7724	3.23192e+02	7.72400e+03	7.88730e-01	3.20000e+02
7879	3.23198e+02	7.87900e+03	7.73706e-01	3.20000e+02
8034	3.23201e+02	8.03400e+03	7.59352e-01	3.20000e+02
8189	3.23193e+02	8.18900e+03	7.45585e-01	3.20000e+02
8344	3.23208e+02	8.34400e+03	7.32341e-01	3.20000e+02
8499	3.23197e+02	8.49900e+03	7.18994e-01	3.20000e+02
8654	3.23193e+02	8.65400e+03	7.06392e-01	3.20000e+02
8809	3.23196e+02	8.80900e+03	6.94247e-01	3.20000e+02
8964	3.23199e+02	8.96400e+03	6.82360e-01	3.20000e+02
9119	3.23178e+02	9.11900e+03	6.70853e-01	3.20000e+02
9274	3.23191e+02	9.27400e+03	6.59759e-01	3.20000e+02
9429	3.23187e+02	9.42900e+03	6.48759e-01	3.20000e+02
9584	3.23195e+02	9.58400e+03	6.38116e-01	3.20000e+02
9739	3.23195e+02	9.73900e+03	6.27847e-01	3.20000e+02
9894	3.23196e+02	9.89400e+03	6.17779e-01	3.20000e+02
10049	3.23198e+02	1.00490e+04	6.08388e-01	3.20000e+02
10204	3.23195e+02	1.02040e+04	5.98977e-01	3.20000e+02
10359	3.23179e+02	1.03590e+04	5.89865e-01	3.20000e+02
10514	3.23179e+02	1.05140e+04	5.80927e-01	3.20000e+02
10669	3.23173e+02	1.06690e+04	5.72225e-01	3.20000e+02
10824	3.23180e+02	1.08240e+04	5.63893e-01	3.20000e+02
10979	3.23179e+02	1.09790e+04	5.55698e-01	3.20000e+02
11134	3.23169e+02	1.11340e+04	5.47759e-01	3.20000e+02
11289	3.23180e+02	1.12890e+04	5.40044e-01	3.20000e+02
11444	3.23188e+02	1.14440e+04	5.32337e-01	3.20000e+02
11599	3.23187e+02	1.15990e+04	5.25023e-01	3.20000e+02
11754	3.23177e+02	1.17540e+04	5.17611e-01	3.20000e+02
11909	3.23173e+02	1.19090e+04	5.10793e-01	3.20000e+02
12064	3.23183e+02	1.20640e+04	5.03803e-01	3.20000e+02
12219	3.23187e+02	1.22190e+04	4.96899e-01	3.20000e+02
12374	3.23185e+02	1.23740e+04	4.90057e-01	3.20000e+02
12529	3.23185e+02	1.25290e+04	4.83993e-01	3.20000e+02
12684	3.23181e+02	1.26840e+04	4.77765e-01	3.20000e+02
12839	3.23182e+02	1.28390e+04	4.71884e-01	3.20000e+02
12994	3.23182e+02	1.29940e+04	4.66093e-01	3.20000e+02
13149	3.23182e+02	1.31490e+04	4.60172e-01	3.20000e+02
13304	3.23199e+02	1.33040e+04	4.54449e-01	3.20000e+02
13459	3.23187e+02	1.34590e+04	4.48838e-01	3.20000e+02
13614	3.23187e+02	1.36140e+04	4.43377e-01	3.20000e+02
13769	3.23171e+02	1.37690e+04	4.38453e-01	3.20000e+02
13924	3.23179e+02	1.39240e+04	4.33082e-01	3.20000e+02
14079	3.23174e+02	1.40790e+04	4.28246e-01	3.20000e+02
14234	3.23178e+02	1.42340e+04	4.23098e-01	3.20000e+02
14389	3.23182e+02	1.43890e+04	4.18031e-01	3.20000e+02
14544	3.23167e+02	1.45440e+04	4.13276e-01	3.20000e+02
14699	3.23172e+02	1.46990e+04	4.08612e-01	3.20000e+02
14854	3.23167e+02	1.48540e+04	4.04184e-01	3.20000e+02
15009	3.23157e+02	1.50090e+04	3.99672e-01	3.20000e+02
15164	3.23163e+02	1.51640e+04	3.95331e-01	3.20000e+02
15319	3.23141e+02	1.53190e+04	3.91092e-01	3.20000e+02
15474	3.23147e+02	1.54740e+04	3.86566e-01	3.20000e+02
15629	3.23135e+02	1.56290e+04	3.82727e-01	3.20000e+02
15784	3.23130e+02	1.57840e+04	3.78539e-01	3.20000e+02
15939	3.23115e+02	1.59390e+04	3.74805e-01	3.20000e+02
16094	3.23110e+02	1.60940e+04	3.70967e-01	3.20000e+02
16249	3.23085e+02	1.62490e+04	3.66830e-01	3.20000e+02
16404	3.23079e+02	1.64040e+04	3.62994e-01	3.20000e+02
16559	3.23060e+02	1.65590e+04	3.59118e-01	3.20000e+02
16714	3.23046e+02	1.67140e+04	3.55435e-01	3.20000e+02
16869	3.23045e+02	1.68690e+04	3.52115e-01	3.20000e+02
17024	3.23030e+02	1.70240e+04	3.48482e-01	3.20000e+02
17179	3.23021e+02	1.71790e+04	3.45250e-01	3.20000e+02
17334	3.23020e+02	1.73340e+04	3.41610e-01	3.20000e+02
17489	3.22993e+02	1.74890e+04	3.38088e-01	3.20000e+02
17644	3.22994e+02	1.76440e+04	3.34935e-01	3.20000e+02
17799	3.23002e+02	1.77990e+04	3.31644e-01	3.20000e+02
17954	3.22997e+02	1.79540e+04	3.28384e-01	3.20000e+02
18109	3.22988e+02	1.81090e+04	3.25467e-01	3.20000e+02
18264	3.22980e+02	1.82640e+04	3.22729e-01	3.20000e+02
18419	3.23000e+02	1.84190e+04	3.19545e-01	3.20000e+02
18574	3.22982e+02	1.85740e+04	3.16514e-01	3.20000e+02
18729	3.22989e+02	1.87290e+04	3.13842e-01	3.20000e+02
18884	3.22981e+02	1.88840e+04	3.10626e-01	3.20000e+02
19039	3.22971e+02	1.90390e+04	3.07980e-01	3.20000e+02
19194	3.22974e+02	1.91940e+04	3.05194e-01	3.20000e+02
19349	3.22979e+02	1.93490e+04	3.02257e-01	3.20000e+02
19504	3.22973e+02	1.95040e+04	2.99858e-01	3.20000e+02
19659	3.22964e+02	1.96590e+04	2.96986e-01	3.20000e+02
19814	3.22972e+02	1.98140e+04	2.94413e-01	3.20000e+02
19969	3.22984e+02	1.99690e+04	2.92047e-01	3.20000e+02
20124	3.22974e+02	2.01240e+04	2.89374e-01	3.20000e+02
20279	3.22976e+02	2.02790e+04	2.87060e-01	3.20000e+02
20434	3.22975e+02	2.04340e+04	2.84588e-01	3.20000e+02
20589	3.22979e+02	2.05890e+04	2.82120e-01	3.20000e+02
20744	3.22974e+02	2.07440e+04	2.79826e-01	3.20000e+02
20899	3.22975e+02	2.08990e+04	2.77346e-01	3.20000e+02
21054	3.22973e+02	2.10540e+04	2.75119e-01	3.20000e+02
21209	3.22979e+02	2.12090e+04	2.72582e-01	3.20000e+02
21364	3.22968e+02	2.13640e+04	2.70344e-01	3.20000e+02
21519	3.22985e+02	2.15190e+04	2.68269e-01	3.20000e+02
21674	3.22970e+02	2.16740e+04	2.66113e-01	3.20000e+02
21829	3.22976e+02	2.18290e+04	2.63858e-01	3.20000e+02
21984	3.22964e+02	2.19840e+04	2.62046e-01	3.20000e+02
22139	3.22971e+02	2.21390e+04	2.59727e-01	3.20000e+02
22294	3.22968e+02	2.22940e+04	2.57790e-01	3.20000e+02
22449	3.22963e+02	2.24490e+04	2.56013e-01	3.20000e+02
22604	3.22975e+02	2.26040e+04	2.53817e-01	3.20000e+02
22759	3.22990e+02	2.27590e+04	2.51892e-01	3.20000e+02
22914	3.22984e+02	2.29140e+04	2.49987e-01	3.20000e+02
23069	3.22978e+02	2.30690e+04	2.48014e-01	3.20000e+02
23224	3.22969e+02	2.32240e+04	2.46326e-01	3.20000e+02
23379	3.22968e+02	2.33790e+04	2.44384e-01	3.20000e+02
23534	3.22982e+02	2.35340e+04	2.42568e-01	3.20000e+02
23689	3.22975e+02	2.36890e+04	2.40793e-01	3.20000e+02
23844	3.22991e+02	2.38440e+04	2.39076e-01	3.20000e+02
23999	3.22992e+02	2.39990e+04	2.37017e-01	3.20000e+02
24154	3.22987e+02	2.41540e+04	2.35371e-01	3.20000e+02
24309	3.22982e+02	2.43090e+04	2.33733e-01	3.20000e+02
24464	3.22985e+02	2.44640e+04	2.31798e-01	3.20000e+02
24619	3.22982e+02	2.46190e+04	2.30553e-01	3.20000e+02
24774	3.22990e+02	2.47740e+04	2.28918e-01	3.20000e+02
24929	3.22984e+02	2.49290e+04	2.26911e-01	3.20000e+02
25084	3.22986e+02	2.50840e+04	2.25495e-01	3.20000e+02
25239	3.22998e+02	2.52390e+04	2.24093e-01	3.20000e+02
25394	3.22990e+02	2.53940e+04	2.22422e-01	3.20000e+02
25549	3.22987e+02	2.55490e+04	2.21286e-01	3.20000e+02
25704	3.23003e+02	2.57040e+04	2.19690e-01	3.20000e+02
25859	3.22986e+02	2.58590e+04	2.18196e-01	3.20000e+02
26014	3.22991e+02	2.60140e+04	2.16581e-01	3.20000e+02
26169	3.22990e+02	2.61690e+04	2.15047e-01	3.20000e+02
26324	3.22992e+02	2.63240e+04	2.13537e-01	3.20000e+02
26479	3.22971e+02	2.64790e+04	2.12289e-01	3.20000e+02
26634	3.22983e+02	2.66340e+04	2.10721e-01	3.20000e+02
26789	3.22996e+02	2.67890e+04	2.09311e-01	3.20000e+02
26944	3.22986e+02	2.69440e+04	2.08028e-01	3.20000e+02
27099	3.22973e+02	2.70990e+04	2.06904e-01	3.20000e+02
27254	3.22991e+02	2.72540e+04	2.05401e-01	3.20000e+02
27409	3.23001e+02	2.74090e+04	2.04038e-01	3.20000e+02
27564	3.22986e+02	2.75640e+04	2.02690e-01	3.20000e+02
27719	3.22979e+02	2.77190e+04	2.01554e-01	3.20000e+02
27874	3.22974e+02	2.78740e+04	2.00302e-01	3.20000e+02
28029	3.22990e+02	2.80290e+04	1.98806e-01	3.20000e+02
28184	3.22979e+02	2.81840e+04	1.97800e-01	3.20000e+02
28339	3.22982e+02	2.83390e+04	1.96715e-01	3.20000e+02
28494	3.22990e+02	2.84940e+04	1.95412e-01	3.20000e+02
28649	3.22987e+02	2.86490e+04	1.94351e-01	3.20000e+02
28804	3.22988e+02	2.88040e+04	1.92966e-01	3.20000e+02
28959	3.22993e+02	2.89590e+04	1.91747e-01	3.20000e+02
29114	3.22996e+02	2.91140e+04	1.90628e-01	3.20000e+02
29269	3.22978e+02	2.92690e+04	1.89663e-01	3.20000e+02
29424	3.22992e+02	2.94240e+04	1.88690e-01	3.20000e+02
29579	3.22997e+02	2.95790e+04	1.87383e-01	3.20000e+02
29731	3.22981e+02	2.97310e+04	1.86071e-01	3.20000e+02