File: Experiments/TUBS/tga_isotherm/tga_isotherm_n2_iso320_powder_3mg_r1.txt
index	ts	t	weight	tr
[#]	[°C]	[s]	[mg]	[°C]
900	1.22345e+02	9.00000e+02	2.98654e+00	9.00000e+01
1059	2.96133e+02	1.05900e+03	2.80664e+00	3.20000e+02
1214	3.19781e+02	1.21400e+03	2.62485e+00	3.20000e+02
1369	3.22528e+02	1.36900e+03	2.46825e+00	3.20000e+02
1524	3.22809e+02	1.52400e+03	2.32667e+00	3.20000e+02
1679	3.22815e+02	1.67900e+03	2.20398e+00	3.20000e+02
1834	3.22802e+02	1.83400e+03	2.09672e+00	3.20000e+02
1989	3.22791e+02	1.98900e+03	2.00142e+00	3.20000e+02
2144	3.22782e+02	2.14400e+03	1.91634e+00	3.20000e+02
2299	3.22792e+02	2.29900e+03	1.83906e+00	3.20000e+02
2454	3.22796e+02	2.45400e+03	1.76824e+00	3.20000e+02
2609	3.22783e+02	2.60900e+03	1.70389e+00	3.20000e+02
2764	3.22785e+02	2.76400e+03	1.64451e+00	3.20000e+02
2919	3.22784e+02	2.91900e+03	1.58928e+00	3.20000e+02
3074	3.22786e+02	3.07400e+03	1.53809e+00	3.20000e+02
3229	3.22785e+02	3.22900e+03	1.49046e+00	3.20000e+02
3384	3.22781e+02	3.38400e+03	1.44563e+00	3.20000e+02
3539	3.22783e+02	3.53900e+03	1.40327e+00	3.20000e+02
3694	3.22789e+02	3.69400e+03	1.36324e+00	3.20000e+02
3849	3.22773e+02	3.84900e+03	1.32589e+00	3.20000e+02
4004	3.22787e+02	4.00400e+03	1.29003e+00	3.20000e+02
4159	3.22782e+02	4.15900e+03	1.25605e+00	3.20000e+02
4314	3.22776e+02	4.31400e+03	1.22381e+00	3.20000e+02
4469	3.22779e+02	4.46900e+03	1.19250e+00	3.20000e+02
4624	3.22793e+02	4.62400e+03	1.16282e+00	3.20000e+02
4779	3.22775e+02	4.77900e+03	1.13444e+00	3.20000e+02
4934	3.22768e+02	4.93400e+03	1.10748e+00	3.20000e+02
5089	3.22760e+02	5.08900e+03	1.08189e+00	3.20000e+02
5244	3.22765e+02	5.24400e+03	1.05699e+00	3.20000e+02
5399	3.22767e+02	5.39900e+03	1.03334e+00	3.20000e+02
5554	3.22756e+02	5.55400e+03	1.01064e+00	3.20000e+02
5709	3.22777e+02	5.70900e+03	9.88749e-01	3.20000e+02
5864	3.22776e+02	5.86400e+03	9.67880e-01	3.20000e+02
6019	3.22773e+02	6.01900e+03	9.47557e-01	3.20000e+02
6174	3.22774e+02	6.17400e+03	9.28131e-01	3.20000e+02
6329	3.22767e+02	6.32900e+03	9.09135e-01	3.20000e+02
6484	3.22768e+02	6.48400e+03	8.90596e-01	3.20000e+02
6639	3.22750e+02	6.63900e+03	8.72981e-01	3.20000e+02
6794	3.22736e+02	6.79400e+03	8.56107e-01	3.20000e+02
6949	3.22745e+02	6.94900e+03	8.39584e-01	3.20000e+02
7104	3.22741e+02	7.10400e+03	8.23711e-01	3.20000e+02
7259	3.22737e+02	7.25900e+03	8.08274e-01	3.20000e+02
7414	3.22746e+02	7.41400e+03	7.93234e-01	3.20000e+02
7569	3.22751e+02	7.56900e+03	7.78945e-01	3.20000e+02
7724	3.22748e+02	7.72400e+03	7.65068e-01	3.20000e+02
7879	3.22732e+02	7.87900e+03	7.51372e-01	3.20000e+02
8034	3.22744e+02	8.03400e+03	7.38359e-01	3.20000e+02
8189	3.22726e+02	8.18900e+03	7.25601e-01	3.20000e+02
8344	3.22729e+02	8.34400e+03	7.13335e-01	3.20000e+02
8499	3.22738e+02	8.49900e+03	7.01311e-01	3.20000e+02
8654	3.22735e+02	8.65400e+03	6.89839e-01	3.20000e+02
8809	3.22736e+02	8.80900e+03	6.78515e-01	3.20000e+02
8964	3.22726e+02	8.96400e+03	6.67649e-01	3.20000e+02
9119	3.22731e+02	9.11900e+03	6.57099e-01	3.20000e+02
9274	3.22721e+02	9.27400e+03	6.46817e-01	3.20000e+02
9429	3.22731e+02	9.42900e+03	6.36611e-01	3.20000e+02
9584	3.22729e+02	9.58400e+03	6.26732e-01	3.20000e+02
9739	3.22726e+02	9.73900e+03	6.17168e-01	3.20000e+02
9894	3.22735e+02	9.89400e+03	6.07535e-01	3.20000e+02
10049	3.22723e+02	1.00490e+04	5.98499e-01	3.20000e+02
10204	3.22733e+02	1.02040e+04	5.89655e-01	3.20000e+02
10359	3.22719e+02	1.03590e+04	5.80886e-01	3.20000e+02
10514	3.22716e+02	1.05140e+04	5.72492e-01	3.20000e+02
10669	3.22711e+02	1.06690e+04	5.64594e-01	3.20000e+02
10824	3.22714e+02	1.08240e+04	5.56533e-01	3.20000e+02
10979	3.22714e+02	1.09790e+04	5.48785e-01	3.20000e+02
11134	3.22692e+02	1.11340e+04	5.41068e-01	3.20000e+02
11289	3.22706e+02	1.12890e+04	5.33652e-01	3.20000e+02
11444	3.22704e+02	1.14440e+04	5.26447e-01	3.20000e+02
11599	3.22695e+02	1.15990e+04	5.19347e-01	3.20000e+02
11754	3.22703e+02	1.17540e+04	5.12452e-01	3.20000e+02
11909	3.22691e+02	1.19090e+04	5.05657e-01	3.20000e+02
12064	3.22704e+02	1.20640e+04	4.99007e-01	3.20000e+02
12219	3.22701e+02	1.22190e+04	4.92449e-01	3.20000e+02
12374	3.22703e+02	1.23740e+04	4.86107e-01	3.20000e+02
12529	3.22711e+02	1.25290e+04	4.80058e-01	3.20000e+02
12684	3.22698e+02	1.26840e+04	4.73887e-01	3.20000e+02
12839	3.22700e+02	1.28390e+04	4.68152e-01	3.20000e+02
12994	3.22702e+02	1.29940e+04	4.62501e-01	3.20000e+02
13149	3.22707e+02	1.31490e+04	4.56860e-01	3.20000e+02
13304	3.22700e+02	1.33040e+04	4.51322e-01	3.20000e+02
13459	3.22702e+02	1.34590e+04	4.45792e-01	3.20000e+02
13614	3.22707e+02	1.36140e+04	4.40588e-01	3.20000e+02
13769	3.22707e+02	1.37690e+04	4.35447e-01	3.20000e+02
13924	3.22702e+02	1.39240e+04	4.30357e-01	3.20000e+02
14079	3.22709e+02	1.40790e+04	4.25360e-01	3.20000e+02
14234	3.22704e+02	1.42340e+04	4.20514e-01	3.20000e+02
14389	3.22713e+02	1.43890e+04	4.15720e-01	3.20000e+02
14544	3.22697e+02	1.45440e+04	4.10852e-01	3.20000e+02
14699	3.22688e+02	1.46990e+04	4.06315e-01	3.20000e+02
14854	3.22690e+02	1.48540e+04	4.02129e-01	3.20000e+02
15009	3.22682e+02	1.50090e+04	3.97648e-01	3.20000e+02
15164	3.22671e+02	1.51640e+04	3.93103e-01	3.20000e+02
15319	3.22681e+02	1.53190e+04	3.88825e-01	3.20000e+02
15474	3.22663e+02	1.54740e+04	3.84676e-01	3.20000e+02
15629	3.22666e+02	1.56290e+04	3.80806e-01	3.20000e+02
15784	3.22660e+02	1.57840e+04	3.76623e-01	3.20000e+02
15939	3.22652e+02	1.59390e+04	3.72852e-01	3.20000e+02
16094	3.22656e+02	1.60940e+04	3.68992e-01	3.20000e+02
16249	3.22658e+02	1.62490e+04	3.65055e-01	3.20000e+02
16404	3.22641e+02	1.64040e+04	3.61337e-01	3.20000e+02
16559	3.22650e+02	1.65590e+04	3.57859e-01	3.20000e+02
16714	3.22653e+02	1.67140e+04	3.54352e-01	3.20000e+02
16869	3.22643e+02	1.68690e+04	3.50772e-01	3.20000e+02
17024	3.22642e+02	1.70240e+04	3.47212e-01	3.20000e+02
17179	3.22638e+02	1.71790e+04	3.44231e-01	3.20000e+02
17334	3.22641e+02	1.73340e+04	3.40577e-01	3.20000e+02
17489	3.22641e+02	1.74890e+04	3.37359e-01	3.20000e+02
17644	3.22649e+02	1.76440e+04	3.33990e-01	3.20000e+02
17799	3.22631e+02	1.77990e+04	3.30833e-01	3.20000e+02
17954	3.22631e+02	1.79540e+04	3.27867e-01	3.20000e+02
18109	3.22642e+02	1.81090e+04	3.24790e-01	3.20000e+02
18264	3.22638e+02	1.82640e+04	3.21862e-01	3.20000e+02
18419	3.22635e+02	1.84190e+04	3.18969e-01	3.20000e+02
18574	3.22606e+02	1.85740e+04	3.16048e-01	3.20000e+02
18729	3.22615e+02	1.87290e+04	3.13338e-01	3.20000e+02
18884	3.22626e+02	1.88840e+04	3.10456e-01	3.20000e+02
19039	3.22601e+02	1.90390e+04	3.07623e-01	3.20000e+02
19194	3.22606e+02	1.91940e+04	3.05093e-01	3.20000e+02
19349	3.22606e+02	1.93490e+04	3.02282e-01	3.20000e+02
19504	3.22596e+02	1.95040e+04	2.99733e-01	3.20000e+02
19659	3.22603e+02	1.96590e+04	2.97283e-01	3.20000e+02
19814	3.22596e+02	1.98140e+04	2.94296e-01	3.20000e+02
19969	3.22602e+02	1.99690e+04	2.92105e-01	3.20000e+02
20124	3.22590e+02	2.01240e+04	2.89516e-01	3.20000e+02
20279	3.22603e+02	2.02790e+04	2.86887e-01	3.20000e+02
20434	3.22595e+02	2.04340e+04	2.84486e-01	3.20000e+02
20589	3.22600e+02	2.05890e+04	2.82225e-01	3.20000e+02
20744	3.22592e+02	2.07440e+04	2.79974e-01	3.20000e+02
20899	3.22607e+02	2.08990e+04	2.77657e-01	3.20000e+02
21054	3.22587e+02	2.10540e+04	2.75303e-01	3.20000e+02
21209	3.22597e+02	2.12090e+04	2.72953e-01	3.20000e+02
21364	3.22591e+02	2.13640e+04	2.70752e-01	3.20000e+02
21519	3.22586e+02	2.15190e+04	2.68511e-01	3.20000e+02
21674	3.22596e+02	2.16740e+04	2.66426e-01	3.20000e+02
21829	3.22576e+02	2.18290e+04	2.64162e-01	3.20000e+02
21984	3.22582e+02	2.19840e+04	2.62434e-01	3.20000e+02
22139	3.22578e+02	2.21390e+04	2.60233e-01	3.20000e+02
22294	3.22596e+02	2.22940e+04	2.58268e-01	3.20000e+02
22449	3.22596e+02	2.24490e+04	2.56211e-01	3.20000e+02
22604	3.22580e+02	2.26040e+04	2.54252e-01	3.20000e+02
22759	3.22580e+02	2.27590e+04	2.52338e-01	3.20000e+02
22914	3.22580e+02	2.29140e+04	2.50251e-01	3.20000e+02
23069	3.22575e+02	2.30690e+04	2.48594e-01	3.20000e+02
23224	3.22577e+02	2.32240e+04	2.46812e-01	3.20000e+02
23379	3.22587e+02	2.33790e+04	2.45021e-01	3.20000e+02
23534	3.22589e+02	2.35340e+04	2.43207e-01	3.20000e+02
23689	3.22588e+02	2.36890e+04	2.41483e-01	3.20000e+02
23844	3.22583e+02	2.38440e+04	2.39491e-01	3.20000e+02
23999	3.22586e+02	2.39990e+04	2.37689e-01	3.20000e+02
24154	3.22557e+02	2.41540e+04	2.36204e-01	3.20000e+02
24309	3.22565e+02	2.43090e+04	2.34543e-01	3.20000e+02
24464	3.22583e+02	2.44640e+04	2.32691e-01	3.20000e+02
24619	3.22587e+02	2.46190e+04	2.31395e-01	3.20000e+02
24774	3.22579e+02	2.47740e+04	2.29835e-01	3.20000e+02
24929	3.22564e+02	2.49290e+04	2.28047e-01	3.20000e+02
25084	3.22572e+02	2.50840e+04	2.26657e-01	3.20000e+02
25239	3.22572e+02	2.52390e+04	2.25016e-01	3.20000e+02
25394	3.22573e+02	2.53940e+04	2.23424e-01	3.20000e+02
25549	3.22572e+02	2.55490e+04	2.22195e-01	3.20000e+02
25704	3.22571e+02	2.57040e+04	2.20719e-01	3.20000e+02
25859	3.22562e+02	2.58590e+04	2.19099e-01	3.20000e+02
26014	3.22567e+02	2.60140e+04	2.17563e-01	3.20000e+02
26169	3.22562e+02	2.61690e+04	2.16227e-01	3.20000e+02
26324	3.22557e+02	2.63240e+04	2.14759e-01	3.20000e+02
26479	3.22551e+02	2.64790e+04	2.13201e-01	3.20000e+02
26634	3.22554e+02	2.66340e+04	2.11887e-01	3.20000e+02
26789	3.22557e+02	2.67890e+04	2.10488e-01	3.20000e+02
26944	3.22547e+02	2.69440e+04	2.09274e-01	3.20000e+02
27099	3.22547e+02	2.70990e+04	2.08054e-01	3.20000e+02
27254	3.22558e+02	2.72540e+04	2.06675e-01	3.20000e+02
27409	3.22558e+02	2.74090e+04	2.05354e-01	3.20000e+02
27564	3.22563e+02	2.75640e+04	2.04285e-01	3.20000e+02
27719	3.22557e+02	2.77190e+04	2.02872e-01	3.20000e+02
27874	3.22566e+02	2.78740e+04	2.01695e-01	3.20000e+02
28029	3.22554e+02	2.80290e+04	2.00202e-01	3.20000e+02
28184	3.22560e+02	2.81840e+04	1.98935e-01	3.20000e+02
28339	3.22556e+02	2.83390e+04	1.97966e-01	3.20000e+02
28494	3.22542e+02	2.84940e+04	1.96793e-01	3.20000e+02
28649	3.22549e+02	2.86490e+04	1.95564e-01	3.20000e+02
28804	3.22560e+02	2.88040e+04	1.94285e-01	3.20000e+02
28959	3.22554e+02	2.89590e+04	1.93062e-01	3.20000e+02
29114	3.22560e+02	2.91140e+04	1.92047e-01	3.20000e+02
29269	3.22551e+02	2.92690e+04	1.90935e-01	3.20000e+02
29424	3.22547e+02	2.94240e+04	1.90027e-01	3.20000e+02
29579	3.22546e+02	2.95790e+04	1.88685e-01	3.20000e+02
29731	3.22560e+02	2.97310e+04	1.87417e-01	3.20000e+02