File: Experiments/TUBS/tga_isotherm/tga_isotherm_n2_iso300_piece_3mg_r3.txt
index	ts	t	weight	tr
[#]	[°C]	[s]	[mg]	[°C]
900	1.21641e+02	9.00000e+02	2.94455e+00	9.00000e+01
1061	2.80137e+02	1.06100e+03	2.87525e+00	3.00000e+02
1216	3.00135e+02	1.21600e+03	2.79203e+00	3.00000e+02
1371	3.02638e+02	1.37100e+03	2.73613e+00	3.00000e+02
1526	3.02975e+02	1.52600e+03	2.69962e+00	3.00000e+02
1681	3.02979e+02	1.68100e+03	2.67021e+00	3.00000e+02
1836	3.02978e+02	1.83600e+03	2.64424e+00	3.00000e+02
1991	3.02969e+02	1.99100e+03	2.62021e+00	3.00000e+02
2146	3.02964e+02	2.14600e+03	2.59613e+00	3.00000e+02
2301	3.02958e+02	2.30100e+03	2.57385e+00	3.00000e+02
2456	3.02960e+02	2.45600e+03	2.55197e+00	3.00000e+02
2611	3.02952e+02	2.61100e+03	2.53044e+00	3.00000e+02
2766	3.02944e+02	2.76600e+03	2.50965e+00	3.00000e+02
2921	3.02944e+02	2.92100e+03	2.48966e+00	3.00000e+02
3076	3.02944e+02	3.07600e+03	2.46945e+00	3.00000e+02
3231	3.02948e+02	3.23100e+03	2.45017e+00	3.00000e+02
3386	3.02931e+02	3.38600e+03	2.43117e+00	3.00000e+02
3541	3.02936e+02	3.54100e+03	2.41209e+00	3.00000e+02
3696	3.02931e+02	3.69600e+03	2.39396e+00	3.00000e+02
3851	3.02940e+02	3.85100e+03	2.37595e+00	3.00000e+02
4006	3.02946e+02	4.00600e+03	2.35779e+00	3.00000e+02
4161	3.02941e+02	4.16100e+03	2.34025e+00	3.00000e+02
4316	3.02942e+02	4.31600e+03	2.32300e+00	3.00000e+02
4471	3.02950e+02	4.47100e+03	2.30566e+00	3.00000e+02
4626	3.02953e+02	4.62600e+03	2.28955e+00	3.00000e+02
4781	3.02928e+02	4.78100e+03	2.27215e+00	3.00000e+02
4936	3.02944e+02	4.93600e+03	2.25677e+00	3.00000e+02
5091	3.02937e+02	5.09100e+03	2.24157e+00	3.00000e+02
5246	3.02938e+02	5.24600e+03	2.22503e+00	3.00000e+02
5401	3.02928e+02	5.40100e+03	2.20980e+00	3.00000e+02
5556	3.02936e+02	5.55600e+03	2.19432e+00	3.00000e+02
5711	3.02933e+02	5.71100e+03	2.17955e+00	3.00000e+02
5866	3.02929e+02	5.86600e+03	2.16496e+00	3.00000e+02
6021	3.02937e+02	6.02100e+03	2.15040e+00	3.00000e+02
6176	3.02948e+02	6.17600e+03	2.13647e+00	3.00000e+02
6331	3.02948e+02	6.33100e+03	2.12207e+00	3.00000e+02
6486	3.02927e+02	6.48600e+03	2.10897e+00	3.00000e+02
6641	3.02946e+02	6.64100e+03	2.09472e+00	3.00000e+02
6796	3.02938e+02	6.79600e+03	2.08165e+00	3.00000e+02
6951	3.02943e+02	6.95100e+03	2.06837e+00	3.00000e+02
7106	3.02943e+02	7.10600e+03	2.05569e+00	3.00000e+02
7261	3.02933e+02	7.26100e+03	2.04266e+00	3.00000e+02
7416	3.02944e+02	7.41600e+03	2.02980e+00	3.00000e+02
7571	3.02933e+02	7.57100e+03	2.01745e+00	3.00000e+02
7726	3.02961e+02	7.72600e+03	2.00473e+00	3.00000e+02
7881	3.02943e+02	7.88100e+03	1.99255e+00	3.00000e+02
8036	3.02942e+02	8.03600e+03	1.98078e+00	3.00000e+02
8191	3.02941e+02	8.19100e+03	1.96901e+00	3.00000e+02
8346	3.02943e+02	8.34600e+03	1.95740e+00	3.00000e+02
8501	3.02941e+02	8.50100e+03	1.94627e+00	3.00000e+02
8656	3.02919e+02	8.65600e+03	1.93410e+00	3.00000e+02
8811	3.02937e+02	8.81100e+03	1.92349e+00	3.00000e+02
8966	3.02934e+02	8.96600e+03	1.91161e+00	3.00000e+02
9121	3.02925e+02	9.12100e+03	1.90114e+00	3.00000e+02
9276	3.02935e+02	9.27600e+03	1.89026e+00	3.00000e+02
9431	3.02928e+02	9.43100e+03	1.87945e+00	3.00000e+02
9586	3.02920e+02	9.58600e+03	1.86880e+00	3.00000e+02
9741	3.02924e+02	9.74100e+03	1.85835e+00	3.00000e+02
9896	3.02916e+02	9.89600e+03	1.84786e+00	3.00000e+02
10051	3.02921e+02	1.00510e+04	1.83774e+00	3.00000e+02
10206	3.02915e+02	1.02060e+04	1.82755e+00	3.00000e+02
10361	3.02933e+02	1.03610e+04	1.81818e+00	3.00000e+02
10516	3.02920e+02	1.05160e+04	1.80832e+00	3.00000e+02
10671	3.02928e+02	1.06710e+04	1.79838e+00	3.00000e+02
10826	3.02924e+02	1.08260e+04	1.78855e+00	3.00000e+02
10981	3.02912e+02	1.09810e+04	1.77869e+00	3.00000e+02
11136	3.02925e+02	1.11360e+04	1.76945e+00	3.00000e+02
11291	3.02930e+02	1.12910e+04	1.76027e+00	3.00000e+02
11446	3.02927e+02	1.14460e+04	1.75072e+00	3.00000e+02
11601	3.02926e+02	1.16010e+04	1.74189e+00	3.00000e+02
11756	3.02932e+02	1.17560e+04	1.73252e+00	3.00000e+02
11911	3.02932e+02	1.19110e+04	1.72408e+00	3.00000e+02
12066	3.02925e+02	1.20660e+04	1.71503e+00	3.00000e+02
12221	3.02917e+02	1.22210e+04	1.70631e+00	3.00000e+02
12376	3.02917e+02	1.23760e+04	1.69806e+00	3.00000e+02
12531	3.02911e+02	1.25310e+04	1.68884e+00	3.00000e+02
12686	3.02912e+02	1.26860e+04	1.68010e+00	3.00000e+02
12841	3.02912e+02	1.28410e+04	1.67180e+00	3.00000e+02
12996	3.02915e+02	1.29960e+04	1.66324e+00	3.00000e+02
13151	3.02921e+02	1.31510e+04	1.65593e+00	3.00000e+02
13306	3.02923e+02	1.33060e+04	1.64731e+00	3.00000e+02
13461	3.02915e+02	1.34610e+04	1.63892e+00	3.00000e+02
13616	3.02933e+02	1.36160e+04	1.63139e+00	3.00000e+02
13771	3.02919e+02	1.37710e+04	1.62278e+00	3.00000e+02
13926	3.02931e+02	1.39260e+04	1.61489e+00	3.00000e+02
14081	3.02933e+02	1.40810e+04	1.60775e+00	3.00000e+02
14236	3.02924e+02	1.42360e+04	1.60010e+00	3.00000e+02
14391	3.02928e+02	1.43910e+04	1.59232e+00	3.00000e+02
14546	3.02934e+02	1.45460e+04	1.58482e+00	3.00000e+02
14701	3.02921e+02	1.47010e+04	1.57735e+00	3.00000e+02
14856	3.02923e+02	1.48560e+04	1.56965e+00	3.00000e+02
15011	3.02927e+02	1.50110e+04	1.56255e+00	3.00000e+02
15166	3.02930e+02	1.51660e+04	1.55527e+00	3.00000e+02
15321	3.02910e+02	1.53210e+04	1.54823e+00	3.00000e+02
15476	3.02922e+02	1.54760e+04	1.54077e+00	3.00000e+02
15631	3.02915e+02	1.56310e+04	1.53390e+00	3.00000e+02
15786	3.02920e+02	1.57860e+04	1.52673e+00	3.00000e+02
15941	3.02928e+02	1.59410e+04	1.51948e+00	3.00000e+02
16096	3.02927e+02	1.60960e+04	1.51250e+00	3.00000e+02
16251	3.02929e+02	1.62510e+04	1.50573e+00	3.00000e+02
16406	3.02939e+02	1.64060e+04	1.49875e+00	3.00000e+02
16561	3.02929e+02	1.65610e+04	1.49193e+00	3.00000e+02
16716	3.02926e+02	1.67160e+04	1.48505e+00	3.00000e+02
16871	3.02926e+02	1.68710e+04	1.47872e+00	3.00000e+02
17026	3.02925e+02	1.70260e+04	1.47233e+00	3.00000e+02
17181	3.02918e+02	1.71810e+04	1.46512e+00	3.00000e+02
17336	3.02922e+02	1.73360e+04	1.45949e+00	3.00000e+02
17491	3.02909e+02	1.74910e+04	1.45238e+00	3.00000e+02
17646	3.02914e+02	1.76460e+04	1.44658e+00	3.00000e+02
17801	3.02913e+02	1.78010e+04	1.43985e+00	3.00000e+02
17956	3.02929e+02	1.79560e+04	1.43424e+00	3.00000e+02
18111	3.02917e+02	1.81110e+04	1.42786e+00	3.00000e+02
18266	3.02914e+02	1.82660e+04	1.42102e+00	3.00000e+02
18421	3.02925e+02	1.84210e+04	1.41537e+00	3.00000e+02
18576	3.02907e+02	1.85760e+04	1.40922e+00	3.00000e+02
18731	3.02917e+02	1.87310e+04	1.40276e+00	3.00000e+02
18886	3.02908e+02	1.88860e+04	1.39696e+00	3.00000e+02
19041	3.02906e+02	1.90410e+04	1.39125e+00	3.00000e+02
19196	3.02920e+02	1.91960e+04	1.38546e+00	3.00000e+02
19351	3.02900e+02	1.93510e+04	1.37967e+00	3.00000e+02
19506	3.02903e+02	1.95060e+04	1.37357e+00	3.00000e+02
19661	3.02902e+02	1.96610e+04	1.36759e+00	3.00000e+02
19816	3.02920e+02	1.98160e+04	1.36163e+00	3.00000e+02
19971	3.02907e+02	1.99710e+04	1.35554e+00	3.00000e+02
20126	3.02903e+02	2.01260e+04	1.35070e+00	3.00000e+02
20281	3.02916e+02	2.02810e+04	1.34550e+00	3.00000e+02
20436	3.02896e+02	2.04360e+04	1.33975e+00	3.00000e+02
20591	3.02910e+02	2.05910e+04	1.33385e+00	3.00000e+02
20746	3.02907e+02	2.07460e+04	1.32917e+00	3.00000e+02
20901	3.02914e+02	2.09010e+04	1.32336e+00	3.00000e+02
21056	3.02909e+02	2.10560e+04	1.31807e+00	3.00000e+02
21211	3.02906e+02	2.12110e+04	1.31236e+00	3.00000e+02
21366	3.02913e+02	2.13660e+04	1.30767e+00	3.00000e+02
21521	3.02908e+02	2.15210e+04	1.30180e+00	3.00000e+02
21676	3.02915e+02	2.16760e+04	1.29674e+00	3.00000e+02
21831	3.02913e+02	2.18310e+04	1.29172e+00	3.00000e+02
21986	3.02909e+02	2.19860e+04	1.28626e+00	3.00000e+02
22141	3.02933e+02	2.21410e+04	1.28114e+00	3.00000e+02
22296	3.02913e+02	2.22960e+04	1.27634e+00	3.00000e+02
22451	3.02915e+02	2.24510e+04	1.27119e+00	3.00000e+02
22606	3.02902e+02	2.26060e+04	1.26659e+00	3.00000e+02
22761	3.02915e+02	2.27610e+04	1.26123e+00	3.00000e+02
22916	3.02912e+02	2.29160e+04	1.25569e+00	3.00000e+02
23071	3.02920e+02	2.30710e+04	1.25129e+00	3.00000e+02
23226	3.02925e+02	2.32260e+04	1.24590e+00	3.00000e+02
23381	3.02924e+02	2.33810e+04	1.24110e+00	3.00000e+02
23536	3.02920e+02	2.35360e+04	1.23674e+00	3.00000e+02
23691	3.02922e+02	2.36910e+04	1.23143e+00	3.00000e+02
23846	3.02930e+02	2.38460e+04	1.22688e+00	3.00000e+02
24001	3.02921e+02	2.40010e+04	1.22205e+00	3.00000e+02
24156	3.02931e+02	2.41560e+04	1.21733e+00	3.00000e+02
24311	3.02922e+02	2.43110e+04	1.21266e+00	3.00000e+02
24466	3.02918e+02	2.44660e+04	1.20782e+00	3.00000e+02
24621	3.02916e+02	2.46210e+04	1.20251e+00	3.00000e+02
24776	3.02914e+02	2.47760e+04	1.19862e+00	3.00000e+02
24931	3.02928e+02	2.49310e+04	1.19385e+00	3.00000e+02
25086	3.02914e+02	2.50860e+04	1.18881e+00	3.00000e+02
25241	3.02922e+02	2.52410e+04	1.18493e+00	3.00000e+02
25396	3.02913e+02	2.53960e+04	1.18005e+00	3.00000e+02
25551	3.02912e+02	2.55510e+04	1.17596e+00	3.00000e+02
25706	3.02918e+02	2.57060e+04	1.17195e+00	3.00000e+02
25861	3.02918e+02	2.58610e+04	1.16726e+00	3.00000e+02
26016	3.02913e+02	2.60160e+04	1.16315e+00	3.00000e+02
26171	3.02908e+02	2.61710e+04	1.15842e+00	3.00000e+02
26326	3.02907e+02	2.63260e+04	1.15424e+00	3.00000e+02
26481	3.02901e+02	2.64810e+04	1.15042e+00	3.00000e+02
26636	3.02912e+02	2.66360e+04	1.14620e+00	3.00000e+02
26791	3.02899e+02	2.67910e+04	1.14132e+00	3.00000e+02
26946	3.02902e+02	2.69460e+04	1.13736e+00	3.00000e+02
27101	3.02906e+02	2.71010e+04	1.13301e+00	3.00000e+02
27256	3.02899e+02	2.72560e+04	1.12866e+00	3.00000e+02
27411	3.02909e+02	2.74110e+04	1.12478e+00	3.00000e+02
27566	3.02909e+02	2.75660e+04	1.12043e+00	3.00000e+02
27721	3.02894e+02	2.77210e+04	1.11645e+00	3.00000e+02
27876	3.02906e+02	2.78760e+04	1.11227e+00	3.00000e+02
28031	3.02915e+02	2.80310e+04	1.10833e+00	3.00000e+02
28186	3.02899e+02	2.81860e+04	1.10421e+00	3.00000e+02
28341	3.02903e+02	2.83410e+04	1.10038e+00	3.00000e+02
28496	3.02886e+02	2.84960e+04	1.09670e+00	3.00000e+02
28651	3.02896e+02	2.86510e+04	1.09229e+00	3.00000e+02
28806	3.02898e+02	2.88060e+04	1.08854e+00	3.00000e+02
28961	3.02889e+02	2.89610e+04	1.08437e+00	3.00000e+02
29116	3.02867e+02	2.91160e+04	1.08065e+00	3.00000e+02
29271	3.02866e+02	2.92710e+04	1.07696e+00	3.00000e+02
29426	3.02871e+02	2.94260e+04	1.07313e+00	3.00000e+02
29581	3.02868e+02	2.95810e+04	1.06925e+00	3.00000e+02
29731	3.02854e+02	2.97310e+04	1.06569e+00	3.00000e+02