File: Experiments/TUBS/tga_isotherm/tga_isotherm_n2_iso300_powder_3mg_r3.txt
index	ts	t	weight	tr
[#]	[°C]	[s]	[mg]	[°C]
900	1.21772e+02	9.00000e+02	3.05921e+00	9.00000e+01
1061	2.80762e+02	1.06100e+03	2.89762e+00	3.00000e+02
1216	3.00446e+02	1.21600e+03	2.79824e+00	3.00000e+02
1371	3.02925e+02	1.37100e+03	2.73530e+00	3.00000e+02
1526	3.03199e+02	1.52600e+03	2.69233e+00	3.00000e+02
1681	3.03206e+02	1.68100e+03	2.65603e+00	3.00000e+02
1836	3.03188e+02	1.83600e+03	2.62345e+00	3.00000e+02
1991	3.03154e+02	1.99100e+03	2.59317e+00	3.00000e+02
2146	3.03153e+02	2.14600e+03	2.56466e+00	3.00000e+02
2301	3.03144e+02	2.30100e+03	2.53810e+00	3.00000e+02
2456	3.03125e+02	2.45600e+03	2.51215e+00	3.00000e+02
2611	3.03144e+02	2.61100e+03	2.48809e+00	3.00000e+02
2766	3.03136e+02	2.76600e+03	2.46469e+00	3.00000e+02
2921	3.03121e+02	2.92100e+03	2.44254e+00	3.00000e+02
3076	3.03119e+02	3.07600e+03	2.42098e+00	3.00000e+02
3231	3.03119e+02	3.23100e+03	2.39993e+00	3.00000e+02
3386	3.03116e+02	3.38600e+03	2.37960e+00	3.00000e+02
3541	3.03118e+02	3.54100e+03	2.35976e+00	3.00000e+02
3696	3.03121e+02	3.69600e+03	2.34072e+00	3.00000e+02
3851	3.03092e+02	3.85100e+03	2.32192e+00	3.00000e+02
4006	3.03110e+02	4.00600e+03	2.30355e+00	3.00000e+02
4161	3.03113e+02	4.16100e+03	2.28569e+00	3.00000e+02
4316	3.03107e+02	4.31600e+03	2.26789e+00	3.00000e+02
4471	3.03129e+02	4.47100e+03	2.25032e+00	3.00000e+02
4626	3.03125e+02	4.62600e+03	2.23359e+00	3.00000e+02
4781	3.03123e+02	4.78100e+03	2.21678e+00	3.00000e+02
4936	3.03121e+02	4.93600e+03	2.20072e+00	3.00000e+02
5091	3.03113e+02	5.09100e+03	2.18446e+00	3.00000e+02
5246	3.03100e+02	5.24600e+03	2.16886e+00	3.00000e+02
5401	3.03104e+02	5.40100e+03	2.15354e+00	3.00000e+02
5556	3.03109e+02	5.55600e+03	2.13812e+00	3.00000e+02
5711	3.03091e+02	5.71100e+03	2.12317e+00	3.00000e+02
5866	3.03100e+02	5.86600e+03	2.10814e+00	3.00000e+02
6021	3.03103e+02	6.02100e+03	2.09407e+00	3.00000e+02
6176	3.03108e+02	6.17600e+03	2.07970e+00	3.00000e+02
6331	3.03112e+02	6.33100e+03	2.06541e+00	3.00000e+02
6486	3.03104e+02	6.48600e+03	2.05176e+00	3.00000e+02
6641	3.03108e+02	6.64100e+03	2.03802e+00	3.00000e+02
6796	3.03104e+02	6.79600e+03	2.02451e+00	3.00000e+02
6951	3.03104e+02	6.95100e+03	2.01135e+00	3.00000e+02
7106	3.03110e+02	7.10600e+03	1.99832e+00	3.00000e+02
7261	3.03115e+02	7.26100e+03	1.98539e+00	3.00000e+02
7416	3.03111e+02	7.41600e+03	1.97285e+00	3.00000e+02
7571	3.03106e+02	7.57100e+03	1.96031e+00	3.00000e+02
7726	3.03109e+02	7.72600e+03	1.94808e+00	3.00000e+02
7881	3.03119e+02	7.88100e+03	1.93606e+00	3.00000e+02
8036	3.03114e+02	8.03600e+03	1.92380e+00	3.00000e+02
8191	3.03116e+02	8.19100e+03	1.91217e+00	3.00000e+02
8346	3.03107e+02	8.34600e+03	1.90054e+00	3.00000e+02
8501	3.03107e+02	8.50100e+03	1.88890e+00	3.00000e+02
8656	3.03098e+02	8.65600e+03	1.87777e+00	3.00000e+02
8811	3.03102e+02	8.81100e+03	1.86660e+00	3.00000e+02
8966	3.03099e+02	8.96600e+03	1.85552e+00	3.00000e+02
9121	3.03119e+02	9.12100e+03	1.84478e+00	3.00000e+02
9276	3.03101e+02	9.27600e+03	1.83387e+00	3.00000e+02
9431	3.03102e+02	9.43100e+03	1.82332e+00	3.00000e+02
9586	3.03111e+02	9.58600e+03	1.81290e+00	3.00000e+02
9741	3.03105e+02	9.74100e+03	1.80256e+00	3.00000e+02
9896	3.03106e+02	9.89600e+03	1.79234e+00	3.00000e+02
10051	3.03114e+02	1.00510e+04	1.78222e+00	3.00000e+02
10206	3.03108e+02	1.02060e+04	1.77219e+00	3.00000e+02
10361	3.03109e+02	1.03610e+04	1.76239e+00	3.00000e+02
10516	3.03098e+02	1.05160e+04	1.75256e+00	3.00000e+02
10671	3.03097e+02	1.06710e+04	1.74291e+00	3.00000e+02
10826	3.03107e+02	1.08260e+04	1.73330e+00	3.00000e+02
10981	3.03094e+02	1.09810e+04	1.72383e+00	3.00000e+02
11136	3.03103e+02	1.11360e+04	1.71463e+00	3.00000e+02
11291	3.03092e+02	1.12910e+04	1.70550e+00	3.00000e+02
11446	3.03089e+02	1.14460e+04	1.69630e+00	3.00000e+02
11601	3.03084e+02	1.16010e+04	1.68742e+00	3.00000e+02
11756	3.03101e+02	1.17560e+04	1.67855e+00	3.00000e+02
11911	3.03080e+02	1.19110e+04	1.66977e+00	3.00000e+02
12066	3.03094e+02	1.20660e+04	1.66091e+00	3.00000e+02
12221	3.03105e+02	1.22210e+04	1.65248e+00	3.00000e+02
12376	3.03095e+02	1.23760e+04	1.64382e+00	3.00000e+02
12531	3.03096e+02	1.25310e+04	1.63527e+00	3.00000e+02
12686	3.03092e+02	1.26860e+04	1.62696e+00	3.00000e+02
12841	3.03094e+02	1.28410e+04	1.61873e+00	3.00000e+02
12996	3.03090e+02	1.29960e+04	1.61060e+00	3.00000e+02
13151	3.03089e+02	1.31510e+04	1.60249e+00	3.00000e+02
13306	3.03086e+02	1.33060e+04	1.59405e+00	3.00000e+02
13461	3.03098e+02	1.34610e+04	1.58627e+00	3.00000e+02
13616	3.03085e+02	1.36160e+04	1.57822e+00	3.00000e+02
13771	3.03089e+02	1.37710e+04	1.57041e+00	3.00000e+02
13926	3.03080e+02	1.39260e+04	1.56258e+00	3.00000e+02
14081	3.03075e+02	1.40810e+04	1.55509e+00	3.00000e+02
14236	3.03088e+02	1.42360e+04	1.54724e+00	3.00000e+02
14391	3.03082e+02	1.43910e+04	1.54005e+00	3.00000e+02
14546	3.03082e+02	1.45460e+04	1.53244e+00	3.00000e+02
14701	3.03078e+02	1.47010e+04	1.52510e+00	3.00000e+02
14856	3.03078e+02	1.48560e+04	1.51789e+00	3.00000e+02
15011	3.03087e+02	1.50110e+04	1.51075e+00	3.00000e+02
15166	3.03081e+02	1.51660e+04	1.50389e+00	3.00000e+02
15321	3.03094e+02	1.53210e+04	1.49632e+00	3.00000e+02
15476	3.03104e+02	1.54760e+04	1.48965e+00	3.00000e+02
15631	3.03092e+02	1.56310e+04	1.48271e+00	3.00000e+02
15786	3.03079e+02	1.57860e+04	1.47581e+00	3.00000e+02
15941	3.03078e+02	1.59410e+04	1.46888e+00	3.00000e+02
16096	3.03075e+02	1.60960e+04	1.46218e+00	3.00000e+02
16251	3.03084e+02	1.62510e+04	1.45558e+00	3.00000e+02
16406	3.03073e+02	1.64060e+04	1.44882e+00	3.00000e+02
16561	3.03081e+02	1.65610e+04	1.44223e+00	3.00000e+02
16716	3.03068e+02	1.67160e+04	1.43569e+00	3.00000e+02
16871	3.03065e+02	1.68710e+04	1.42896e+00	3.00000e+02
17026	3.03082e+02	1.70260e+04	1.42242e+00	3.00000e+02
17181	3.03079e+02	1.71810e+04	1.41600e+00	3.00000e+02
17336	3.03075e+02	1.73360e+04	1.40982e+00	3.00000e+02
17491	3.03084e+02	1.74910e+04	1.40340e+00	3.00000e+02
17646	3.03078e+02	1.76460e+04	1.39709e+00	3.00000e+02
17801	3.03084e+02	1.78010e+04	1.39092e+00	3.00000e+02
17956	3.03081e+02	1.79560e+04	1.38479e+00	3.00000e+02
18111	3.03086e+02	1.81110e+04	1.37890e+00	3.00000e+02
18266	3.03065e+02	1.82660e+04	1.37281e+00	3.00000e+02
18421	3.03070e+02	1.84210e+04	1.36691e+00	3.00000e+02
18576	3.03080e+02	1.85760e+04	1.36102e+00	3.00000e+02
18731	3.03086e+02	1.87310e+04	1.35522e+00	3.00000e+02
18886	3.03085e+02	1.88860e+04	1.34951e+00	3.00000e+02
19041	3.03084e+02	1.90410e+04	1.34378e+00	3.00000e+02
19196	3.03070e+02	1.91960e+04	1.33785e+00	3.00000e+02
19351	3.03087e+02	1.93510e+04	1.33227e+00	3.00000e+02
19506	3.03081e+02	1.95060e+04	1.32639e+00	3.00000e+02
19661	3.03083e+02	1.96610e+04	1.32068e+00	3.00000e+02
19816	3.03081e+02	1.98160e+04	1.31517e+00	3.00000e+02
19971	3.03087e+02	1.99710e+04	1.30960e+00	3.00000e+02
20126	3.03073e+02	2.01260e+04	1.30415e+00	3.00000e+02
20281	3.03066e+02	2.02810e+04	1.29867e+00	3.00000e+02
20436	3.03073e+02	2.04360e+04	1.29315e+00	3.00000e+02
20591	3.03073e+02	2.05910e+04	1.28769e+00	3.00000e+02
20746	3.03079e+02	2.07460e+04	1.28253e+00	3.00000e+02
20901	3.03075e+02	2.09010e+04	1.27728e+00	3.00000e+02
21056	3.03057e+02	2.10560e+04	1.27215e+00	3.00000e+02
21211	3.03078e+02	2.12110e+04	1.26671e+00	3.00000e+02
21366	3.03072e+02	2.13660e+04	1.26181e+00	3.00000e+02
21521	3.03072e+02	2.15210e+04	1.25665e+00	3.00000e+02
21676	3.03089e+02	2.16760e+04	1.25168e+00	3.00000e+02
21831	3.03073e+02	2.18310e+04	1.24642e+00	3.00000e+02
21986	3.03083e+02	2.19860e+04	1.24173e+00	3.00000e+02
22141	3.03070e+02	2.21410e+04	1.23667e+00	3.00000e+02
22296	3.03071e+02	2.22960e+04	1.23188e+00	3.00000e+02
22451	3.03064e+02	2.24510e+04	1.22706e+00	3.00000e+02
22606	3.03078e+02	2.26060e+04	1.22223e+00	3.00000e+02
22761	3.03071e+02	2.27610e+04	1.21727e+00	3.00000e+02
22916	3.03073e+02	2.29160e+04	1.21248e+00	3.00000e+02
23071	3.03082e+02	2.30710e+04	1.20764e+00	3.00000e+02
23226	3.03057e+02	2.32260e+04	1.20289e+00	3.00000e+02
23381	3.03061e+02	2.33810e+04	1.19812e+00	3.00000e+02
23536	3.03074e+02	2.35360e+04	1.19349e+00	3.00000e+02
23691	3.03067e+02	2.36910e+04	1.18906e+00	3.00000e+02
23846	3.03074e+02	2.38460e+04	1.18439e+00	3.00000e+02
24001	3.03061e+02	2.40010e+04	1.17968e+00	3.00000e+02
24156	3.03065e+02	2.41560e+04	1.17524e+00	3.00000e+02
24311	3.03069e+02	2.43110e+04	1.17083e+00	3.00000e+02
24466	3.03069e+02	2.44660e+04	1.16617e+00	3.00000e+02
24621	3.03060e+02	2.46210e+04	1.16175e+00	3.00000e+02
24776	3.03064e+02	2.47760e+04	1.15731e+00	3.00000e+02
24931	3.03064e+02	2.49310e+04	1.15307e+00	3.00000e+02
25086	3.03069e+02	2.50860e+04	1.14878e+00	3.00000e+02
25241	3.03075e+02	2.52410e+04	1.14444e+00	3.00000e+02
25396	3.03068e+02	2.53960e+04	1.14032e+00	3.00000e+02
25551	3.03072e+02	2.55510e+04	1.13593e+00	3.00000e+02
25706	3.03063e+02	2.57060e+04	1.13167e+00	3.00000e+02
25861	3.03060e+02	2.58610e+04	1.12774e+00	3.00000e+02
26016	3.03066e+02	2.60160e+04	1.12359e+00	3.00000e+02
26171	3.03072e+02	2.61710e+04	1.11937e+00	3.00000e+02
26326	3.03074e+02	2.63260e+04	1.11529e+00	3.00000e+02
26481	3.03070e+02	2.64810e+04	1.11115e+00	3.00000e+02
26636	3.03073e+02	2.66360e+04	1.10716e+00	3.00000e+02
26791	3.03075e+02	2.67910e+04	1.10303e+00	3.00000e+02
26946	3.03063e+02	2.69460e+04	1.09903e+00	3.00000e+02
27101	3.03065e+02	2.71010e+04	1.09523e+00	3.00000e+02
27256	3.03066e+02	2.72560e+04	1.09106e+00	3.00000e+02
27411	3.03060e+02	2.74110e+04	1.08722e+00	3.00000e+02
27566	3.03058e+02	2.75660e+04	1.08337e+00	3.00000e+02
27721	3.03076e+02	2.77210e+04	1.07961e+00	3.00000e+02
27876	3.03060e+02	2.78760e+04	1.07560e+00	3.00000e+02
28031	3.03068e+02	2.80310e+04	1.07168e+00	3.00000e+02
28186	3.03069e+02	2.81860e+04	1.06812e+00	3.00000e+02
28341	3.03066e+02	2.83410e+04	1.06426e+00	3.00000e+02
28496	3.03056e+02	2.84960e+04	1.06037e+00	3.00000e+02
28651	3.03051e+02	2.86510e+04	1.05690e+00	3.00000e+02
28806	3.03060e+02	2.88060e+04	1.05323e+00	3.00000e+02
28961	3.03063e+02	2.89610e+04	1.04954e+00	3.00000e+02
29116	3.03051e+02	2.91160e+04	1.04589e+00	3.00000e+02
29271	3.03054e+02	2.92710e+04	1.04239e+00	3.00000e+02
29426	3.03056e+02	2.94260e+04	1.03879e+00	3.00000e+02
29581	3.03059e+02	2.95810e+04	1.03511e+00	3.00000e+02
29731	3.03058e+02	2.97310e+04	1.03138e+00	3.00000e+02