File: Experiments/TGA/TUBS/tga_nonisotherm/tga_dynamic_n2_dyn45_powder_3mg_r2.txt
index	ts	t	weight	tr
[#]	[°C]	[s]	[mg]	[°C]
657	1.32513e+02	6.57000e+02	3.01860e+00	1.32752e+02
661	1.35574e+02	6.61000e+02	3.01862e+00	1.35752e+02
665	1.38642e+02	6.65000e+02	3.01861e+00	1.38752e+02
669	1.41715e+02	6.69000e+02	3.01848e+00	1.41752e+02
673	1.44776e+02	6.73000e+02	3.01814e+00	1.44752e+02
677	1.47841e+02	6.77000e+02	3.01753e+00	1.47752e+02
681	1.50881e+02	6.81000e+02	3.01675e+00	1.50752e+02
685	1.53943e+02	6.85000e+02	3.01599e+00	1.53753e+02
689	1.57018e+02	6.89000e+02	3.01507e+00	1.56753e+02
693	1.60063e+02	6.93000e+02	3.01387e+00	1.59753e+02
697	1.63124e+02	6.97000e+02	3.01240e+00	1.62753e+02
701	1.66165e+02	7.01000e+02	3.01069e+00	1.65753e+02
705	1.69215e+02	7.05000e+02	3.00890e+00	1.68753e+02
709	1.72274e+02	7.09000e+02	3.00704e+00	1.71753e+02
713	1.75326e+02	7.13000e+02	3.00487e+00	1.74753e+02
717	1.78385e+02	7.17000e+02	3.00227e+00	1.77754e+02
721	1.81431e+02	7.21000e+02	2.99898e+00	1.80754e+02
725	1.84491e+02	7.25000e+02	2.99474e+00	1.83754e+02
729	1.87531e+02	7.29000e+02	2.98940e+00	1.86754e+02
733	1.90592e+02	7.33000e+02	2.98283e+00	1.89754e+02
737	1.93647e+02	7.37000e+02	2.97522e+00	1.92754e+02
741	1.96695e+02	7.41000e+02	2.96674e+00	1.95754e+02
745	1.99755e+02	7.45000e+02	2.95769e+00	1.98754e+02
749	2.02813e+02	7.49000e+02	2.94843e+00	2.01755e+02
753	2.05890e+02	7.53000e+02	2.93939e+00	2.04755e+02
757	2.08964e+02	7.57000e+02	2.93111e+00	2.07755e+02
761	2.12034e+02	7.61000e+02	2.92386e+00	2.10755e+02
765	2.15109e+02	7.65000e+02	2.91786e+00	2.13755e+02
769	2.18172e+02	7.69000e+02	2.91329e+00	2.16755e+02
773	2.21245e+02	7.73000e+02	2.90999e+00	2.19755e+02
777	2.24313e+02	7.77000e+02	2.90738e+00	2.22755e+02
781	2.27394e+02	7.81000e+02	2.90515e+00	2.25756e+02
785	2.30452e+02	7.85000e+02	2.90321e+00	2.28756e+02
789	2.33523e+02	7.89000e+02	2.90103e+00	2.31756e+02
793	2.36586e+02	7.93000e+02	2.89826e+00	2.34756e+02
797	2.39668e+02	7.97000e+02	2.89551e+00	2.37756e+02
801	2.42744e+02	8.01000e+02	2.89334e+00	2.40756e+02
805	2.45796e+02	8.05000e+02	2.89146e+00	2.43756e+02
809	2.48871e+02	8.09000e+02	2.88959e+00	2.46756e+02
813	2.51947e+02	8.13000e+02	2.88776e+00	2.49757e+02
817	2.55011e+02	8.17000e+02	2.88566e+00	2.52757e+02
821	2.58091e+02	8.21000e+02	2.88352e+00	2.55757e+02
825	2.61180e+02	8.25000e+02	2.88161e+00	2.58757e+02
829	2.64217e+02	8.29000e+02	2.87980e+00	2.61757e+02
833	2.67288e+02	8.33000e+02	2.87796e+00	2.64757e+02
837	2.70319e+02	8.37000e+02	2.87622e+00	2.67757e+02
841	2.73355e+02	8.41000e+02	2.87447e+00	2.70757e+02
845	2.76417e+02	8.45000e+02	2.87265e+00	2.73758e+02
849	2.79484e+02	8.49000e+02	2.87071e+00	2.76758e+02
853	2.82473e+02	8.53000e+02	2.86838e+00	2.79758e+02
857	2.85474e+02	8.57000e+02	2.86568e+00	2.82758e+02
861	2.88508e+02	8.61000e+02	2.86258e+00	2.85758e+02
865	2.91551e+02	8.65000e+02	2.85889e+00	2.88758e+02
869	2.94597e+02	8.69000e+02	2.85472e+00	2.91758e+02
873	2.97634e+02	8.73000e+02	2.84967e+00	2.94758e+02
877	3.00674e+02	8.77000e+02	2.84347e+00	2.97759e+02
881	3.03748e+02	8.81000e+02	2.83608e+00	3.00759e+02
885	3.06806e+02	8.85000e+02	2.82758e+00	3.03759e+02
889	3.09882e+02	8.89000e+02	2.81771e+00	3.06759e+02
893	3.12984e+02	8.93000e+02	2.80670e+00	3.09759e+02
897	3.16039e+02	8.97000e+02	2.79507e+00	3.12759e+02
901	3.19097e+02	9.01000e+02	2.78270e+00	3.15759e+02
905	3.22147e+02	9.05000e+02	2.76970e+00	3.18759e+02
909	3.25177e+02	9.09000e+02	2.75636e+00	3.21759e+02
913	3.28191e+02	9.13000e+02	2.74282e+00	3.24760e+02
917	3.31240e+02	9.17000e+02	2.72892e+00	3.27760e+02
921	3.34276e+02	9.21000e+02	2.71434e+00	3.30760e+02
925	3.37313e+02	9.25000e+02	2.69774e+00	3.33760e+02
929	3.40342e+02	9.29000e+02	2.67814e+00	3.36760e+02
933	3.43332e+02	9.33000e+02	2.65489e+00	3.39760e+02
937	3.46342e+02	9.37000e+02	2.62741e+00	3.42760e+02
941	3.49352e+02	9.41000e+02	2.59467e+00	3.45760e+02
945	3.52337e+02	9.45000e+02	2.55570e+00	3.48761e+02
949	3.55357e+02	9.49000e+02	2.50985e+00	3.51761e+02
953	3.58365e+02	9.53000e+02	2.45644e+00	3.54761e+02
957	3.61362e+02	9.57000e+02	2.39483e+00	3.57761e+02
961	3.64366e+02	9.61000e+02	2.32468e+00	3.60761e+02
965	3.67355e+02	9.65000e+02	2.24603e+00	3.63761e+02
969	3.70332e+02	9.69000e+02	2.15902e+00	3.66761e+02
973	3.73241e+02	9.73000e+02	2.06440e+00	3.69761e+02
977	3.76177e+02	9.77000e+02	1.96283e+00	3.72762e+02
981	3.79136e+02	9.81000e+02	1.85449e+00	3.75762e+02
985	3.82104e+02	9.85000e+02	1.73906e+00	3.78762e+02
989	3.85061e+02	9.89000e+02	1.61730e+00	3.81762e+02
993	3.88018e+02	9.93000e+02	1.49036e+00	3.84762e+02
997	3.90970e+02	9.97000e+02	1.36064e+00	3.87762e+02
1001	3.93942e+02	1.00100e+03	1.23058e+00	3.90762e+02
1005	3.96916e+02	1.00500e+03	1.10218e+00	3.93762e+02
1009	3.99897e+02	1.00900e+03	9.75796e-01	3.96763e+02
1013	4.02907e+02	1.01300e+03	8.50883e-01	3.99763e+02
1017	4.05944e+02	1.01700e+03	7.28622e-01	4.02763e+02
1021	4.08993e+02	1.02100e+03	6.11780e-01	4.05763e+02
1025	4.12026e+02	1.02500e+03	5.03462e-01	4.08763e+02
1029	4.15064e+02	1.02900e+03	4.08237e-01	4.11763e+02
1033	4.18150e+02	1.03300e+03	3.25999e-01	4.14763e+02
1037	4.21222e+02	1.03700e+03	2.58259e-01	4.17763e+02
1041	4.24235e+02	1.04100e+03	2.01880e-01	4.20764e+02
1045	4.27302e+02	1.04500e+03	1.57054e-01	4.23764e+02
1049	4.30339e+02	1.04900e+03	1.21905e-01	4.26764e+02
1053	4.33358e+02	1.05300e+03	9.48670e-02	4.29764e+02
1057	4.36384e+02	1.05700e+03	7.50334e-02	4.32764e+02
1061	4.39428e+02	1.06100e+03	6.11400e-02	4.35764e+02
1065	4.42439e+02	1.06500e+03	5.14022e-02	4.38764e+02
1069	4.45470e+02	1.06900e+03	4.44038e-02	4.41764e+02
1073	4.48473e+02	1.07300e+03	3.96869e-02	4.44765e+02
1077	4.51390e+02	1.07700e+03	3.65291e-02	4.47765e+02
1081	4.54362e+02	1.08100e+03	3.40356e-02	4.50765e+02
1085	4.57390e+02	1.08500e+03	3.20314e-02	4.53765e+02
1089	4.60441e+02	1.08900e+03	3.08057e-02	4.56765e+02
1093	4.63415e+02	1.09300e+03	3.03050e-02	4.59765e+02
1097	4.66341e+02	1.09700e+03	3.01400e-02	4.62765e+02
1101	4.69337e+02	1.10100e+03	3.00276e-02	4.65765e+02
1105	4.72341e+02	1.10500e+03	2.98171e-02	4.68766e+02
1109	4.75298e+02	1.10900e+03	2.95497e-02	4.71766e+02
1113	4.78245e+02	1.11300e+03	2.92578e-02	4.74766e+02
1117	4.81223e+02	1.11700e+03	2.91362e-02	4.77766e+02
1121	4.84263e+02	1.12100e+03	2.93860e-02	4.80766e+02
1125	4.87195e+02	1.12500e+03	2.96545e-02	4.83766e+02
1129	4.90140e+02	1.12900e+03	2.93909e-02	4.86766e+02
1133	4.93080e+02	1.13300e+03	2.90121e-02	4.89766e+02
1137	4.96036e+02	1.13700e+03	2.88935e-02	4.92766e+02
1141	4.98947e+02	1.14100e+03	2.88463e-02	4.95767e+02
1145	5.01853e+02	1.14500e+03	2.86095e-02	4.98767e+02
1149	5.04676e+02	1.14900e+03	2.82187e-02	5.01767e+02
1153	5.07568e+02	1.15300e+03	2.82361e-02	5.04767e+02
1157	5.10475e+02	1.15700e+03	2.88444e-02	5.07767e+02
1161	5.13358e+02	1.16100e+03	2.95201e-02	5.10767e+02
1165	5.16275e+02	1.16500e+03	2.96118e-02	5.13767e+02
1169	5.19254e+02	1.16900e+03	2.88165e-02	5.16767e+02
1173	5.22243e+02	1.17300e+03	2.79627e-02	5.19768e+02
1177	5.25169e+02	1.17700e+03	2.77976e-02	5.22768e+02
1181	5.28102e+02	1.18100e+03	2.80398e-02	5.25768e+02
1185	5.31046e+02	1.18500e+03	2.82182e-02	5.28768e+02
1189	5.33994e+02	1.18900e+03	2.82917e-02	5.31768e+02
1193	5.36985e+02	1.19300e+03	2.84241e-02	5.34768e+02
1197	5.39955e+02	1.19700e+03	2.86413e-02	5.37768e+02
1201	5.42893e+02	1.20100e+03	2.86798e-02	5.40768e+02
1205	5.45854e+02	1.20500e+03	2.84095e-02	5.43769e+02
1209	5.48807e+02	1.20900e+03	2.83370e-02	5.46769e+02
1213	5.51808e+02	1.21300e+03	2.84764e-02	5.49769e+02
1217	5.54799e+02	1.21700e+03	2.87090e-02	5.52769e+02
1221	5.57825e+02	1.22100e+03	2.85853e-02	5.55769e+02
1225	5.60669e+02	1.22500e+03	2.83261e-02	5.58769e+02
1229	5.63654e+02	1.22900e+03	2.82242e-02	5.61769e+02
1233	5.66667e+02	1.23300e+03	2.80650e-02	5.64769e+02
1237	5.69640e+02	1.23700e+03	2.78413e-02	5.67770e+02
1241	5.72583e+02	1.24100e+03	2.77122e-02	5.70770e+02
1245	5.75679e+02	1.24500e+03	2.78790e-02	5.73770e+02
1249	5.78757e+02	1.24900e+03	2.83227e-02	5.76770e+02
1253	5.81763e+02	1.25300e+03	2.82589e-02	5.79770e+02
1257	5.84892e+02	1.25700e+03	2.75915e-02	5.82770e+02
1261	5.87900e+02	1.26100e+03	2.75518e-02	5.85770e+02
1265	5.90989e+02	1.26500e+03	2.79602e-02	5.88770e+02
1269	5.93989e+02	1.26900e+03	2.78908e-02	5.91771e+02
1273	5.96785e+02	1.27300e+03	2.76252e-02	5.94771e+02
1277	5.99677e+02	1.27700e+03	2.76265e-02	5.97771e+02
1281	6.02539e+02	1.28100e+03	2.76549e-02	6.00771e+02
1285	6.05410e+02	1.28500e+03	2.75064e-02	6.03771e+02
1289	6.08364e+02	1.28900e+03	2.74891e-02	6.06771e+02
1293	6.11416e+02	1.29300e+03	2.76836e-02	6.09771e+02
1297	6.14830e+02	1.29700e+03	2.78461e-02	6.12771e+02
1301	6.17722e+02	1.30100e+03	2.78031e-02	6.15772e+02
1305	6.20676e+02	1.30500e+03	2.76527e-02	6.18772e+02
1309	6.23576e+02	1.30900e+03	2.75538e-02	6.21772e+02
1313	6.26541e+02	1.31300e+03	2.75703e-02	6.24772e+02
1317	6.29626e+02	1.31700e+03	2.77306e-02	6.27772e+02
1321	6.32566e+02	1.32100e+03	2.77839e-02	6.30772e+02
1325	6.35681e+02	1.32500e+03	2.75931e-02	6.33772e+02
1329	6.38612e+02	1.32900e+03	2.74265e-02	6.36772e+02
1333	6.42320e+02	1.33300e+03	2.74596e-02	6.39773e+02
1337	6.45145e+02	1.33700e+03	2.76491e-02	6.42773e+02
1341	6.50062e+02	1.34100e+03	2.78300e-02	6.45773e+02
1345	6.53884e+02	1.34500e+03	2.79172e-02	6.48773e+02
1349	6.57020e+02	1.34900e+03	2.79743e-02	6.51773e+02
1353	6.60010e+02	1.35300e+03	2.78530e-02	6.54773e+02
1357	6.63224e+02	1.35700e+03	2.75199e-02	6.57773e+02
1361	6.66401e+02	1.36100e+03	2.73655e-02	6.60773e+02
1365	6.69098e+02	1.36500e+03	2.78255e-02	6.63773e+02
1369	6.71971e+02	1.36900e+03	2.81918e-02	6.66774e+02
1373	6.75014e+02	1.37300e+03	2.81046e-02	6.69774e+02
1377	6.77828e+02	1.37700e+03	2.76312e-02	6.72774e+02
1381	6.80712e+02	1.38100e+03	2.75628e-02	6.75774e+02
1385	6.83676e+02	1.38500e+03	2.77219e-02	6.78774e+02
1389	6.85923e+02	1.38900e+03	2.75313e-02	6.81774e+02
1393	6.87917e+02	1.39300e+03	2.72599e-02	6.84774e+02
1397	6.89629e+02	1.39700e+03	2.74212e-02	6.87774e+02
1401	6.91296e+02	1.40100e+03	2.74390e-02	6.90775e+02
1405	6.92837e+02	1.40500e+03	2.72311e-02	6.93775e+02
1409	6.94596e+02	1.40900e+03	2.74093e-02	6.96775e+02
1413	6.95753e+02	1.41300e+03	2.78853e-02	6.99775e+02
1414	6.95845e+02	1.41400e+03	2.79517e-02	7.00000e+02