File: Experiments/TGA/TUBS/tga_nonisotherm/tga_dynamic_n2_dyn120_piece_3mg_r3.txt
index	ts	t	weight	tr
[#]	[°C]	[s]	[mg]	[°C]
623	1.17911e+02	6.23000e+02	3.01180e+00	1.36000e+02
625	1.22603e+02	6.25000e+02	3.01190e+00	1.40000e+02
627	1.27098e+02	6.27000e+02	3.01195e+00	1.44000e+02
629	1.31479e+02	6.29000e+02	3.01201e+00	1.48000e+02
631	1.35972e+02	6.31000e+02	3.01203e+00	1.52000e+02
633	1.40501e+02	6.33000e+02	3.01223e+00	1.56000e+02
635	1.45041e+02	6.35000e+02	3.01217e+00	1.60000e+02
637	1.49552e+02	6.37000e+02	3.01209e+00	1.64000e+02
639	1.54077e+02	6.39000e+02	3.01177e+00	1.68000e+02
641	1.58554e+02	6.41000e+02	3.01133e+00	1.72000e+02
643	1.63013e+02	6.43000e+02	3.01085e+00	1.76000e+02
645	1.67454e+02	6.45000e+02	3.01039e+00	1.80000e+02
647	1.71868e+02	6.47000e+02	3.00995e+00	1.84000e+02
649	1.76240e+02	6.49000e+02	3.00963e+00	1.88000e+02
651	1.80615e+02	6.51000e+02	3.00932e+00	1.92000e+02
653	1.84958e+02	6.53000e+02	3.00907e+00	1.96000e+02
655	1.89298e+02	6.55000e+02	3.00881e+00	2.00000e+02
657	1.93604e+02	6.57000e+02	3.00854e+00	2.04000e+02
659	1.97903e+02	6.59000e+02	3.00826e+00	2.08000e+02
661	2.02190e+02	6.61000e+02	3.00790e+00	2.12000e+02
663	2.06442e+02	6.63000e+02	3.00746e+00	2.16000e+02
665	2.10699e+02	6.65000e+02	3.00685e+00	2.20000e+02
667	2.14931e+02	6.67000e+02	3.00619e+00	2.24000e+02
669	2.19174e+02	6.69000e+02	3.00531e+00	2.28000e+02
671	2.23391e+02	6.71000e+02	3.00436e+00	2.32000e+02
673	2.27613e+02	6.73000e+02	3.00319e+00	2.36000e+02
675	2.31814e+02	6.75000e+02	3.00199e+00	2.40000e+02
677	2.35994e+02	6.77000e+02	3.00060e+00	2.44000e+02
679	2.40174e+02	6.79000e+02	2.99918e+00	2.48000e+02
681	2.44342e+02	6.81000e+02	2.99762e+00	2.52000e+02
683	2.48484e+02	6.83000e+02	2.99606e+00	2.56000e+02
685	2.52630e+02	6.85000e+02	2.99440e+00	2.60000e+02
687	2.56731e+02	6.87000e+02	2.99271e+00	2.64000e+02
689	2.60816e+02	6.89000e+02	2.99092e+00	2.68000e+02
691	2.64891e+02	6.91000e+02	2.98911e+00	2.72000e+02
693	2.68972e+02	6.93000e+02	2.98717e+00	2.76000e+02
695	2.73078e+02	6.95000e+02	2.98518e+00	2.80000e+02
697	2.77223e+02	6.97000e+02	2.98303e+00	2.84000e+02
699	2.81380e+02	6.99000e+02	2.98082e+00	2.88000e+02
701	2.85491e+02	7.01000e+02	2.97834e+00	2.92000e+02
703	2.89566e+02	7.03000e+02	2.97570e+00	2.96000e+02
705	2.93624e+02	7.05000e+02	2.97261e+00	3.00000e+02
707	2.97692e+02	7.07000e+02	2.96937e+00	3.04000e+02
709	3.01770e+02	7.09000e+02	2.96562e+00	3.08000e+02
711	3.05792e+02	7.11000e+02	2.96176e+00	3.12000e+02
713	3.09840e+02	7.13000e+02	2.95738e+00	3.16000e+02
715	3.13921e+02	7.15000e+02	2.95284e+00	3.20000e+02
717	3.17970e+02	7.17000e+02	2.94765e+00	3.24000e+02
719	3.22044e+02	7.19000e+02	2.94220e+00	3.28000e+02
721	3.26147e+02	7.21000e+02	2.93582e+00	3.32000e+02
723	3.30236e+02	7.23000e+02	2.92901e+00	3.36000e+02
725	3.34318e+02	7.25000e+02	2.92081e+00	3.40000e+02
727	3.38408e+02	7.27000e+02	2.91203e+00	3.44000e+02
729	3.42469e+02	7.29000e+02	2.90134e+00	3.48000e+02
731	3.46480e+02	7.31000e+02	2.88991e+00	3.52000e+02
733	3.50449e+02	7.33000e+02	2.87568e+00	3.56000e+02
735	3.54499e+02	7.35000e+02	2.86000e+00	3.60000e+02
737	3.58540e+02	7.37000e+02	2.84082e+00	3.64000e+02
739	3.62691e+02	7.39000e+02	2.81853e+00	3.68000e+02
741	3.66741e+02	7.41000e+02	2.78999e+00	3.72000e+02
743	3.70762e+02	7.43000e+02	2.75533e+00	3.76000e+02
745	3.74834e+02	7.45000e+02	2.71122e+00	3.80000e+02
747	3.78832e+02	7.47000e+02	2.65702e+00	3.84000e+02
749	3.82840e+02	7.49000e+02	2.59244e+00	3.88000e+02
751	3.86752e+02	7.51000e+02	2.51592e+00	3.92000e+02
753	3.90608e+02	7.53000e+02	2.42438e+00	3.96000e+02
755	3.94348e+02	7.55000e+02	2.32027e+00	4.00000e+02
757	3.98314e+02	7.57000e+02	2.20573e+00	4.04000e+02
759	4.02302e+02	7.59000e+02	2.08088e+00	4.08000e+02
761	4.06388e+02	7.61000e+02	1.94528e+00	4.12000e+02
763	4.10410e+02	7.63000e+02	1.80253e+00	4.16000e+02
765	4.14286e+02	7.65000e+02	1.64859e+00	4.20000e+02
767	4.18408e+02	7.67000e+02	1.48725e+00	4.24000e+02
769	4.22610e+02	7.69000e+02	1.31979e+00	4.28000e+02
771	4.26478e+02	7.71000e+02	1.14993e+00	4.32000e+02
773	4.30577e+02	7.73000e+02	9.79491e-01	4.36000e+02
775	4.34525e+02	7.75000e+02	8.10175e-01	4.40000e+02
777	4.38634e+02	7.77000e+02	6.43959e-01	4.44000e+02
779	4.42947e+02	7.79000e+02	4.88811e-01	4.48000e+02
781	4.47303e+02	7.81000e+02	3.55561e-01	4.52000e+02
783	4.51422e+02	7.83000e+02	2.43479e-01	4.56000e+02
785	4.55488e+02	7.85000e+02	1.62403e-01	4.60000e+02
787	4.59819e+02	7.87000e+02	1.01620e-01	4.64000e+02
789	4.64128e+02	7.89000e+02	6.40710e-02	4.68000e+02
791	4.68365e+02	7.91000e+02	3.89814e-02	4.72000e+02
793	4.71767e+02	7.93000e+02	2.45827e-02	4.76000e+02
795	4.75709e+02	7.95000e+02	1.49443e-02	4.80000e+02
797	4.79587e+02	7.97000e+02	1.09540e-02	4.84000e+02
799	4.83191e+02	7.99000e+02	6.74551e-03	4.88000e+02
801	4.87777e+02	8.01000e+02	5.31773e-03	4.92000e+02
803	4.91362e+02	8.03000e+02	3.74238e-03	4.96000e+02
805	4.95088e+02	8.05000e+02	3.38003e-03	5.00000e+02
807	4.98941e+02	8.07000e+02	2.88451e-03	5.04000e+02
809	5.02897e+02	8.09000e+02	2.81726e-03	5.08000e+02
811	5.07143e+02	8.11000e+02	2.69360e-03	5.12000e+02
813	5.12306e+02	8.13000e+02	2.68398e-03	5.16000e+02
815	5.15694e+02	8.15000e+02	2.62400e-03	5.20000e+02
817	5.18833e+02	8.17000e+02	2.54932e-03	5.24000e+02
819	5.22645e+02	8.19000e+02	2.47126e-03	5.28000e+02
821	5.26513e+02	8.21000e+02	2.37819e-03	5.32000e+02
823	5.30864e+02	8.23000e+02	2.30184e-03	5.36000e+02
825	5.34125e+02	8.25000e+02	2.26313e-03	5.40000e+02
827	5.37621e+02	8.27000e+02	2.24839e-03	5.44000e+02
829	5.41504e+02	8.29000e+02	2.27564e-03	5.48000e+02
831	5.45159e+02	8.31000e+02	2.28081e-03	5.52000e+02
833	5.49083e+02	8.33000e+02	2.28339e-03	5.56000e+02
835	5.52930e+02	8.35000e+02	2.28575e-03	5.60000e+02
837	5.56809e+02	8.37000e+02	2.27961e-03	5.64000e+02
839	5.60587e+02	8.39000e+02	2.27170e-03	5.68000e+02
841	5.64454e+02	8.41000e+02	2.25952e-03	5.72000e+02
843	5.68316e+02	8.43000e+02	2.24553e-03	5.76000e+02
845	5.72174e+02	8.45000e+02	2.21354e-03	5.80000e+02
847	5.75999e+02	8.47000e+02	2.16776e-03	5.84000e+02
849	5.79919e+02	8.49000e+02	2.10254e-03	5.88000e+02
851	5.83888e+02	8.51000e+02	2.05570e-03	5.92000e+02
853	5.87941e+02	8.53000e+02	2.02128e-03	5.96000e+02
855	5.91915e+02	8.55000e+02	1.99111e-03	6.00000e+02
857	5.95983e+02	8.57000e+02	1.98500e-03	6.04000e+02
859	6.00231e+02	8.59000e+02	1.99606e-03	6.08000e+02
861	6.04249e+02	8.61000e+02	2.03850e-03	6.12000e+02
863	6.08689e+02	8.63000e+02	2.07462e-03	6.16000e+02
865	6.12699e+02	8.65000e+02	2.11511e-03	6.20000e+02
867	6.16499e+02	8.67000e+02	2.14501e-03	6.24000e+02
869	6.20327e+02	8.69000e+02	2.15311e-03	6.28000e+02
871	6.24263e+02	8.71000e+02	2.15521e-03	6.32000e+02
873	6.28185e+02	8.73000e+02	2.13724e-03	6.36000e+02
875	6.32157e+02	8.75000e+02	2.12362e-03	6.40000e+02
877	6.36064e+02	8.77000e+02	2.10706e-03	6.44000e+02
879	6.40007e+02	8.79000e+02	2.10411e-03	6.48000e+02
881	6.41600e+02	8.81000e+02	2.15261e-03	6.52000e+02
883	6.44229e+02	8.83000e+02	2.21635e-03	6.56000e+02
885	6.47304e+02	8.85000e+02	2.30684e-03	6.60000e+02
887	6.50169e+02	8.87000e+02	2.30133e-03	6.64000e+02
889	6.52552e+02	8.89000e+02	2.20365e-03	6.68000e+02
891	6.54814e+02	8.91000e+02	2.06675e-03	6.72000e+02
893	6.56925e+02	8.93000e+02	1.86949e-03	6.76000e+02
895	6.58975e+02	8.95000e+02	1.72180e-03	6.80000e+02
897	6.60933e+02	8.97000e+02	1.62003e-03	6.84000e+02
899	6.62789e+02	8.99000e+02	1.54478e-03	6.88000e+02
901	6.64516e+02	9.01000e+02	1.52755e-03	6.92000e+02
903	6.66189e+02	9.03000e+02	1.52337e-03	6.96000e+02
905	6.67765e+02	9.05000e+02	1.54427e-03	7.00000e+02