File: Experiments/TGA/TUBS/tga_nonisotherm/tga_dynamic_n2_dyn60_powder_1mg_r1.txt
index	ts	t	weight	tr
[#]	[°C]	[s]	[mg]	[°C]
643	1.29900e+02	6.43000e+02	9.89352e-01	1.33000e+02
646	1.32848e+02	6.46000e+02	9.89276e-01	1.36000e+02
649	1.35802e+02	6.49000e+02	9.89213e-01	1.39000e+02
652	1.38734e+02	6.52000e+02	9.89167e-01	1.42000e+02
655	1.41685e+02	6.55000e+02	9.89100e-01	1.45000e+02
658	1.44625e+02	6.58000e+02	9.88967e-01	1.48000e+02
661	1.47567e+02	6.61000e+02	9.88769e-01	1.51000e+02
664	1.50504e+02	6.64000e+02	9.88531e-01	1.54000e+02
667	1.53449e+02	6.67000e+02	9.88252e-01	1.57000e+02
670	1.56380e+02	6.70000e+02	9.87932e-01	1.60000e+02
673	1.59334e+02	6.73000e+02	9.87606e-01	1.63000e+02
676	1.62274e+02	6.76000e+02	9.87272e-01	1.66000e+02
679	1.65219e+02	6.79000e+02	9.86947e-01	1.69000e+02
682	1.68170e+02	6.82000e+02	9.86609e-01	1.72000e+02
685	1.71123e+02	6.85000e+02	9.86197e-01	1.75000e+02
688	1.74090e+02	6.88000e+02	9.85692e-01	1.78000e+02
691	1.77046e+02	6.91000e+02	9.85085e-01	1.81000e+02
694	1.80005e+02	6.94000e+02	9.84329e-01	1.84000e+02
697	1.82962e+02	6.97000e+02	9.83445e-01	1.87000e+02
700	1.85923e+02	7.00000e+02	9.82376e-01	1.90000e+02
703	1.88906e+02	7.03000e+02	9.81131e-01	1.93000e+02
706	1.91869e+02	7.06000e+02	9.79583e-01	1.96000e+02
709	1.94834e+02	7.09000e+02	9.77748e-01	1.99000e+02
712	1.97815e+02	7.12000e+02	9.75637e-01	2.02000e+02
715	2.00801e+02	7.15000e+02	9.73358e-01	2.05000e+02
718	2.03781e+02	7.18000e+02	9.70910e-01	2.08000e+02
721	2.06771e+02	7.21000e+02	9.68439e-01	2.11000e+02
724	2.09753e+02	7.24000e+02	9.66094e-01	2.14000e+02
727	2.12758e+02	7.27000e+02	9.63983e-01	2.17000e+02
730	2.15731e+02	7.30000e+02	9.62270e-01	2.20000e+02
733	2.18744e+02	7.33000e+02	9.60857e-01	2.23000e+02
736	2.21725e+02	7.36000e+02	9.59700e-01	2.26000e+02
739	2.24724e+02	7.39000e+02	9.58702e-01	2.29000e+02
742	2.27732e+02	7.42000e+02	9.57872e-01	2.32000e+02
745	2.30732e+02	7.45000e+02	9.57113e-01	2.35000e+02
748	2.33731e+02	7.48000e+02	9.56417e-01	2.38000e+02
751	2.36741e+02	7.51000e+02	9.55760e-01	2.41000e+02
754	2.39744e+02	7.54000e+02	9.55104e-01	2.44000e+02
757	2.42751e+02	7.57000e+02	9.54378e-01	2.47000e+02
760	2.45774e+02	7.60000e+02	9.53623e-01	2.50000e+02
763	2.48775e+02	7.63000e+02	9.52880e-01	2.53000e+02
766	2.51776e+02	7.66000e+02	9.52134e-01	2.56000e+02
769	2.54793e+02	7.69000e+02	9.51372e-01	2.59000e+02
772	2.57803e+02	7.72000e+02	9.50650e-01	2.62000e+02
775	2.60814e+02	7.75000e+02	9.49946e-01	2.65000e+02
778	2.63849e+02	7.78000e+02	9.49301e-01	2.68000e+02
781	2.66853e+02	7.81000e+02	9.48719e-01	2.71000e+02
784	2.69871e+02	7.84000e+02	9.48158e-01	2.74000e+02
787	2.72888e+02	7.87000e+02	9.47599e-01	2.77000e+02
790	2.75902e+02	7.90000e+02	9.47007e-01	2.80000e+02
793	2.78931e+02	7.93000e+02	9.46361e-01	2.83000e+02
796	2.81930e+02	7.96000e+02	9.45689e-01	2.86000e+02
799	2.84954e+02	7.99000e+02	9.44976e-01	2.89000e+02
802	2.87982e+02	8.02000e+02	9.44137e-01	2.92000e+02
805	2.91001e+02	8.05000e+02	9.43136e-01	2.95000e+02
808	2.94017e+02	8.08000e+02	9.41970e-01	2.98000e+02
811	2.97022e+02	8.11000e+02	9.40628e-01	3.01000e+02
814	3.00039e+02	8.14000e+02	9.38978e-01	3.04000e+02
817	3.03058e+02	8.17000e+02	9.37021e-01	3.07000e+02
820	3.06078e+02	8.20000e+02	9.34728e-01	3.10000e+02
823	3.09095e+02	8.23000e+02	9.32122e-01	3.13000e+02
826	3.12113e+02	8.26000e+02	9.29033e-01	3.16000e+02
829	3.15138e+02	8.29000e+02	9.25577e-01	3.19000e+02
832	3.18144e+02	8.32000e+02	9.21803e-01	3.22000e+02
835	3.21161e+02	8.35000e+02	9.17805e-01	3.25000e+02
838	3.24182e+02	8.38000e+02	9.13538e-01	3.28000e+02
841	3.27190e+02	8.41000e+02	9.09136e-01	3.31000e+02
844	3.30211e+02	8.44000e+02	9.04680e-01	3.34000e+02
847	3.33229e+02	8.47000e+02	9.00157e-01	3.37000e+02
850	3.36231e+02	8.50000e+02	8.95359e-01	3.40000e+02
853	3.39234e+02	8.53000e+02	8.90014e-01	3.43000e+02
856	3.42232e+02	8.56000e+02	8.83901e-01	3.46000e+02
859	3.45253e+02	8.59000e+02	8.76917e-01	3.49000e+02
862	3.48255e+02	8.62000e+02	8.68379e-01	3.52000e+02
865	3.51238e+02	8.65000e+02	8.58230e-01	3.55000e+02
868	3.54223e+02	8.68000e+02	8.46121e-01	3.58000e+02
871	3.57205e+02	8.71000e+02	8.32084e-01	3.61000e+02
874	3.60193e+02	8.74000e+02	8.14965e-01	3.64000e+02
877	3.63173e+02	8.77000e+02	7.95225e-01	3.67000e+02
880	3.66142e+02	8.80000e+02	7.72735e-01	3.70000e+02
883	3.69114e+02	8.83000e+02	7.47794e-01	3.73000e+02
886	3.72075e+02	8.86000e+02	7.19249e-01	3.76000e+02
889	3.75030e+02	8.89000e+02	6.87975e-01	3.79000e+02
892	3.77987e+02	8.92000e+02	6.54092e-01	3.82000e+02
895	3.80950e+02	8.95000e+02	6.18006e-01	3.85000e+02
898	3.83916e+02	8.98000e+02	5.78857e-01	3.88000e+02
901	3.86886e+02	9.01000e+02	5.37737e-01	3.91000e+02
904	3.89860e+02	9.04000e+02	4.95115e-01	3.94000e+02
907	3.92838e+02	9.07000e+02	4.51643e-01	3.97000e+02
910	3.95806e+02	9.10000e+02	4.07725e-01	4.00000e+02
913	3.98792e+02	9.13000e+02	3.64546e-01	4.03000e+02
916	4.01777e+02	9.16000e+02	3.22684e-01	4.06000e+02
919	4.04751e+02	9.19000e+02	2.82522e-01	4.09000e+02
922	4.07739e+02	9.22000e+02	2.45492e-01	4.12000e+02
925	4.10716e+02	9.25000e+02	2.11588e-01	4.15000e+02
928	4.13702e+02	9.28000e+02	1.81175e-01	4.18000e+02
931	4.16698e+02	9.31000e+02	1.54013e-01	4.21000e+02
934	4.19672e+02	9.34000e+02	1.31696e-01	4.24000e+02
937	4.22668e+02	9.37000e+02	1.12995e-01	4.27000e+02
940	4.25655e+02	9.40000e+02	9.76168e-02	4.30000e+02
943	4.28624e+02	9.43000e+02	8.48510e-02	4.33000e+02
946	4.31603e+02	9.46000e+02	7.55298e-02	4.36000e+02
949	4.34589e+02	9.49000e+02	6.83057e-02	4.39000e+02
952	4.37559e+02	9.52000e+02	6.27845e-02	4.42000e+02
955	4.40527e+02	9.55000e+02	5.85036e-02	4.45000e+02
958	4.43500e+02	9.58000e+02	5.56790e-02	4.48000e+02
961	4.46470e+02	9.61000e+02	5.35565e-02	4.51000e+02
964	4.49421e+02	9.64000e+02	5.19628e-02	4.54000e+02
967	4.52389e+02	9.67000e+02	5.07224e-02	4.57000e+02
970	4.55340e+02	9.70000e+02	4.99104e-02	4.60000e+02
973	4.58295e+02	9.73000e+02	4.93314e-02	4.63000e+02
976	4.61253e+02	9.76000e+02	4.89177e-02	4.66000e+02
979	4.64216e+02	9.79000e+02	4.86047e-02	4.69000e+02
982	4.67172e+02	9.82000e+02	4.84025e-02	4.72000e+02
985	4.70134e+02	9.85000e+02	4.82618e-02	4.75000e+02
988	4.73093e+02	9.88000e+02	4.81528e-02	4.78000e+02
991	4.76055e+02	9.91000e+02	4.80405e-02	4.81000e+02
994	4.79022e+02	9.94000e+02	4.79339e-02	4.84000e+02
997	4.81993e+02	9.97000e+02	4.78581e-02	4.87000e+02
1000	4.84950e+02	1.00000e+03	4.77941e-02	4.90000e+02
1003	4.87915e+02	1.00300e+03	4.77379e-02	4.93000e+02
1006	4.90882e+02	1.00600e+03	4.76909e-02	4.96000e+02
1009	4.93843e+02	1.00900e+03	4.76512e-02	4.99000e+02
1012	4.96809e+02	1.01200e+03	4.76334e-02	5.02000e+02
1015	4.99770e+02	1.01500e+03	4.76170e-02	5.05000e+02
1018	5.02732e+02	1.01800e+03	4.75830e-02	5.08000e+02
1021	5.05693e+02	1.02100e+03	4.75259e-02	5.11000e+02
1024	5.08663e+02	1.02400e+03	4.74712e-02	5.14000e+02
1027	5.11625e+02	1.02700e+03	4.74321e-02	5.17000e+02
1030	5.14597e+02	1.03000e+03	4.74145e-02	5.20000e+02
1033	5.17563e+02	1.03300e+03	4.73858e-02	5.23000e+02
1036	5.20514e+02	1.03600e+03	4.73369e-02	5.26000e+02
1039	5.23483e+02	1.03900e+03	4.73052e-02	5.29000e+02
1042	5.26451e+02	1.04200e+03	4.72882e-02	5.32000e+02
1045	5.29415e+02	1.04500e+03	4.72575e-02	5.35000e+02
1048	5.32373e+02	1.04800e+03	4.72122e-02	5.38000e+02
1051	5.35346e+02	1.05100e+03	4.71648e-02	5.41000e+02
1054	5.38308e+02	1.05400e+03	4.71122e-02	5.44000e+02
1057	5.41287e+02	1.05700e+03	4.70523e-02	5.47000e+02
1060	5.44227e+02	1.06000e+03	4.70096e-02	5.50000e+02
1063	5.47199e+02	1.06300e+03	4.69996e-02	5.53000e+02
1066	5.50165e+02	1.06600e+03	4.70208e-02	5.56000e+02
1069	5.53130e+02	1.06900e+03	4.70442e-02	5.59000e+02
1072	5.56086e+02	1.07200e+03	4.70726e-02	5.62000e+02
1075	5.59061e+02	1.07500e+03	4.70825e-02	5.65000e+02
1078	5.62021e+02	1.07800e+03	4.70783e-02	5.68000e+02
1081	5.64988e+02	1.08100e+03	4.70706e-02	5.71000e+02
1084	5.67956e+02	1.08400e+03	4.70337e-02	5.74000e+02
1087	5.70923e+02	1.08700e+03	4.69899e-02	5.77000e+02
1090	5.73890e+02	1.09000e+03	4.69463e-02	5.80000e+02
1093	5.76839e+02	1.09300e+03	4.69045e-02	5.83000e+02
1096	5.79821e+02	1.09600e+03	4.68650e-02	5.86000e+02
1099	5.82781e+02	1.09900e+03	4.68503e-02	5.89000e+02
1102	5.85740e+02	1.10200e+03	4.68526e-02	5.92000e+02
1105	5.88712e+02	1.10500e+03	4.68520e-02	5.95000e+02
1108	5.91676e+02	1.10800e+03	4.68497e-02	5.98000e+02
1111	5.94645e+02	1.11100e+03	4.68191e-02	6.01000e+02
1114	5.97614e+02	1.11400e+03	4.67652e-02	6.04000e+02
1117	6.00570e+02	1.11700e+03	4.67337e-02	6.07000e+02
1120	6.03540e+02	1.12000e+03	4.67167e-02	6.10000e+02
1123	6.06501e+02	1.12300e+03	4.66997e-02	6.13000e+02
1126	6.09472e+02	1.12600e+03	4.66814e-02	6.16000e+02
1129	6.12437e+02	1.12900e+03	4.66663e-02	6.19000e+02
1132	6.15408e+02	1.13200e+03	4.66546e-02	6.22000e+02
1135	6.18374e+02	1.13500e+03	4.66674e-02	6.25000e+02
1138	6.21348e+02	1.13800e+03	4.67065e-02	6.28000e+02
1141	6.24312e+02	1.14100e+03	4.67325e-02	6.31000e+02
1144	6.27282e+02	1.14400e+03	4.67440e-02	6.34000e+02
1147	6.30258e+02	1.14700e+03	4.67297e-02	6.37000e+02
1150	6.33224e+02	1.15000e+03	4.66877e-02	6.40000e+02
1153	6.36192e+02	1.15300e+03	4.66637e-02	6.43000e+02
1156	6.39173e+02	1.15600e+03	4.66821e-02	6.46000e+02
1159	6.42151e+02	1.15900e+03	4.67216e-02	6.49000e+02
1162	6.45138e+02	1.16200e+03	4.67463e-02	6.52000e+02
1165	6.48117e+02	1.16500e+03	4.67361e-02	6.55000e+02
1168	6.51086e+02	1.16800e+03	4.67396e-02	6.58000e+02
1171	6.54075e+02	1.17100e+03	4.67572e-02	6.61000e+02
1174	6.57054e+02	1.17400e+03	4.67869e-02	6.64000e+02
1177	6.60032e+02	1.17700e+03	4.68006e-02	6.67000e+02
1180	6.63010e+02	1.18000e+03	4.67965e-02	6.70000e+02
1183	6.65997e+02	1.18300e+03	4.68002e-02	6.73000e+02
1186	6.67736e+02	1.18600e+03	4.68440e-02	6.76000e+02
1189	6.69782e+02	1.18900e+03	4.69461e-02	6.79000e+02
1192	6.71883e+02	1.19200e+03	4.70067e-02	6.82000e+02
1195	6.73794e+02	1.19500e+03	4.69598e-02	6.85000e+02
1198	6.75527e+02	1.19800e+03	4.68031e-02	6.88000e+02
1201	6.77114e+02	1.20100e+03	4.67123e-02	6.91000e+02
1204	6.78570e+02	1.20400e+03	4.66844e-02	6.94000e+02
1207	6.79908e+02	1.20700e+03	4.66550e-02	6.97000e+02
1210	6.81144e+02	1.21000e+03	4.66401e-02	7.00000e+02