File: Experiments/TGA/TUBS/tga_nonisotherm/tga_dynamic_n2_dyn20_piece_2mg_r2.txt
index	ts	t	weight	tr
[#]	[°C]	[s]	[mg]	[°C]
723	1.30263e+02	7.23000e+02	2.04017e+00	1.31000e+02
733	1.33588e+02	7.33000e+02	2.04005e+00	1.34333e+02
743	1.36909e+02	7.43000e+02	2.04001e+00	1.37667e+02
753	1.40228e+02	7.53000e+02	2.03991e+00	1.41000e+02
763	1.43559e+02	7.63000e+02	2.03985e+00	1.44333e+02
773	1.46915e+02	7.73000e+02	2.03971e+00	1.47667e+02
783	1.50254e+02	7.83000e+02	2.03956e+00	1.51000e+02
793	1.53599e+02	7.93000e+02	2.03946e+00	1.54333e+02
803	1.56957e+02	8.03000e+02	2.03925e+00	1.57667e+02
813	1.60292e+02	8.13000e+02	2.03906e+00	1.61000e+02
823	1.63656e+02	8.23000e+02	2.03901e+00	1.64333e+02
833	1.67000e+02	8.33000e+02	2.03889e+00	1.67667e+02
843	1.70364e+02	8.43000e+02	2.03880e+00	1.71000e+02
853	1.73713e+02	8.53000e+02	2.03844e+00	1.74333e+02
863	1.77095e+02	8.63000e+02	2.03798e+00	1.77667e+02
873	1.80443e+02	8.73000e+02	2.03753e+00	1.81000e+02
883	1.83825e+02	8.83000e+02	2.03681e+00	1.84333e+02
893	1.87196e+02	8.93000e+02	2.03570e+00	1.87667e+02
903	1.90560e+02	9.03000e+02	2.03431e+00	1.91000e+02
913	1.93944e+02	9.13000e+02	2.03243e+00	1.94333e+02
923	1.97336e+02	9.23000e+02	2.03047e+00	1.97667e+02
933	2.00725e+02	9.33000e+02	2.02819e+00	2.01000e+02
943	2.04093e+02	9.43000e+02	2.02562e+00	2.04333e+02
953	2.07481e+02	9.53000e+02	2.02320e+00	2.07667e+02
963	2.10860e+02	9.63000e+02	2.02068e+00	2.11000e+02
973	2.14243e+02	9.73000e+02	2.01807e+00	2.14333e+02
983	2.17628e+02	9.83000e+02	2.01553e+00	2.17667e+02
993	2.20999e+02	9.93000e+02	2.01304e+00	2.21000e+02
1003	2.24372e+02	1.00300e+03	2.01044e+00	2.24333e+02
1013	2.27742e+02	1.01300e+03	2.00745e+00	2.27667e+02
1023	2.31118e+02	1.02300e+03	2.00466e+00	2.31000e+02
1033	2.34498e+02	1.03300e+03	2.00177e+00	2.34333e+02
1043	2.37862e+02	1.04300e+03	1.99891e+00	2.37667e+02
1053	2.41219e+02	1.05300e+03	1.99605e+00	2.41000e+02
1063	2.44595e+02	1.06300e+03	1.99308e+00	2.44333e+02
1073	2.47967e+02	1.07300e+03	1.99021e+00	2.47667e+02
1083	2.51340e+02	1.08300e+03	1.98745e+00	2.51000e+02
1093	2.54714e+02	1.09300e+03	1.98456e+00	2.54333e+02
1103	2.58057e+02	1.10300e+03	1.98170e+00	2.57667e+02
1113	2.61420e+02	1.11300e+03	1.97872e+00	2.61000e+02
1123	2.64776e+02	1.12300e+03	1.97586e+00	2.64333e+02
1133	2.68149e+02	1.13300e+03	1.97314e+00	2.67667e+02
1143	2.71493e+02	1.14300e+03	1.97028e+00	2.71000e+02
1153	2.74850e+02	1.15300e+03	1.96753e+00	2.74333e+02
1163	2.78200e+02	1.16300e+03	1.96462e+00	2.77667e+02
1173	2.81560e+02	1.17300e+03	1.96151e+00	2.81000e+02
1183	2.84905e+02	1.18300e+03	1.95820e+00	2.84333e+02
1193	2.88257e+02	1.19300e+03	1.95451e+00	2.87667e+02
1203	2.91600e+02	1.20300e+03	1.95052e+00	2.91000e+02
1213	2.94944e+02	1.21300e+03	1.94614e+00	2.94333e+02
1223	2.98285e+02	1.22300e+03	1.94087e+00	2.97667e+02
1233	3.01637e+02	1.23300e+03	1.93494e+00	3.01000e+02
1243	3.04982e+02	1.24300e+03	1.92839e+00	3.04333e+02
1253	3.08305e+02	1.25300e+03	1.92106e+00	3.07667e+02
1263	3.11652e+02	1.26300e+03	1.91330e+00	3.11000e+02
1273	3.15003e+02	1.27300e+03	1.90527e+00	3.14333e+02
1283	3.18341e+02	1.28300e+03	1.89698e+00	3.17667e+02
1293	3.21658e+02	1.29300e+03	1.88831e+00	3.21000e+02
1303	3.25008e+02	1.30300e+03	1.87890e+00	3.24333e+02
1313	3.28338e+02	1.31300e+03	1.86822e+00	3.27667e+02
1323	3.31672e+02	1.32300e+03	1.85574e+00	3.31000e+02
1333	3.34988e+02	1.33300e+03	1.84066e+00	3.34333e+02
1343	3.38317e+02	1.34300e+03	1.82237e+00	3.37667e+02
1353	3.41634e+02	1.35300e+03	1.79933e+00	3.41000e+02
1363	3.44931e+02	1.36300e+03	1.77123e+00	3.44333e+02
1373	3.48244e+02	1.37300e+03	1.73610e+00	3.47667e+02
1383	3.51540e+02	1.38300e+03	1.69343e+00	3.51000e+02
1393	3.54837e+02	1.39300e+03	1.64064e+00	3.54333e+02
1403	3.58113e+02	1.40300e+03	1.57672e+00	3.57667e+02
1413	3.61409e+02	1.41300e+03	1.49994e+00	3.61000e+02
1423	3.64687e+02	1.42300e+03	1.41068e+00	3.64333e+02
1433	3.67967e+02	1.43300e+03	1.30670e+00	3.67667e+02
1443	3.71270e+02	1.44300e+03	1.19267e+00	3.71000e+02
1453	3.74563e+02	1.45300e+03	1.07019e+00	3.74333e+02
1463	3.77854e+02	1.46300e+03	9.43822e-01	3.77667e+02
1473	3.81183e+02	1.47300e+03	8.17505e-01	3.81000e+02
1483	3.84489e+02	1.48300e+03	6.94663e-01	3.84333e+02
1493	3.87823e+02	1.49300e+03	5.74627e-01	3.87667e+02
1503	3.91165e+02	1.50300e+03	4.55374e-01	3.91000e+02
1513	3.94533e+02	1.51300e+03	3.45154e-01	3.94333e+02
1523	3.97914e+02	1.52300e+03	2.51410e-01	3.97667e+02
1533	4.01292e+02	1.53300e+03	1.76877e-01	4.01000e+02
1543	4.04654e+02	1.54300e+03	1.19789e-01	4.04333e+02
1553	4.08019e+02	1.55300e+03	7.79533e-02	4.07667e+02
1563	4.11372e+02	1.56300e+03	4.79867e-02	4.11000e+02
1573	4.14721e+02	1.57300e+03	2.76699e-02	4.14333e+02
1583	4.18052e+02	1.58300e+03	1.36110e-02	4.17667e+02
1593	4.21380e+02	1.59300e+03	4.01645e-03	4.21000e+02
1603	4.24708e+02	1.60300e+03	-2.74241e-03	4.24333e+02
1613	4.28015e+02	1.61300e+03	-7.54747e-03	4.27667e+02
1623	4.31338e+02	1.62300e+03	-1.11019e-02	4.31000e+02
1633	4.34644e+02	1.63300e+03	-1.37891e-02	4.34333e+02
1643	4.37956e+02	1.64300e+03	-1.57488e-02	4.37667e+02
1653	4.41259e+02	1.65300e+03	-1.72432e-02	4.41000e+02
1663	4.44566e+02	1.66300e+03	-1.83040e-02	4.44333e+02
1673	4.47860e+02	1.67300e+03	-1.89448e-02	4.47667e+02
1683	4.51167e+02	1.68300e+03	-1.92694e-02	4.51000e+02
1693	4.54466e+02	1.69300e+03	-1.91990e-02	4.54333e+02
1703	4.57776e+02	1.70300e+03	-1.92551e-02	4.57667e+02
1713	4.61060e+02	1.71300e+03	-1.94616e-02	4.61000e+02
1723	4.64361e+02	1.72300e+03	-1.96917e-02	4.64333e+02
1733	4.67657e+02	1.73300e+03	-1.96791e-02	4.67667e+02
1743	4.70963e+02	1.74300e+03	-1.97125e-02	4.71000e+02
1753	4.74259e+02	1.75300e+03	-1.97930e-02	4.74333e+02
1763	4.77553e+02	1.76300e+03	-1.99855e-02	4.77667e+02
1773	4.80857e+02	1.77300e+03	-2.00088e-02	4.81000e+02
1783	4.84155e+02	1.78300e+03	-2.00262e-02	4.84333e+02
1793	4.87451e+02	1.79300e+03	-2.00304e-02	4.87667e+02
1803	4.90753e+02	1.80300e+03	-2.00124e-02	4.91000e+02
1813	4.94057e+02	1.81300e+03	-2.00202e-02	4.94333e+02
1823	4.97356e+02	1.82300e+03	-2.00485e-02	4.97667e+02
1833	5.00655e+02	1.83300e+03	-2.01858e-02	5.01000e+02
1843	5.03953e+02	1.84300e+03	-2.02659e-02	5.04333e+02
1853	5.07250e+02	1.85300e+03	-2.03488e-02	5.07667e+02
1863	5.10571e+02	1.86300e+03	-2.04551e-02	5.11000e+02
1873	5.13872e+02	1.87300e+03	-2.04265e-02	5.14333e+02
1883	5.17174e+02	1.88300e+03	-2.03040e-02	5.17667e+02
1893	5.20482e+02	1.89300e+03	-2.03055e-02	5.21000e+02
1903	5.23794e+02	1.90300e+03	-2.02416e-02	5.24333e+02
1913	5.27112e+02	1.91300e+03	-2.03609e-02	5.27667e+02
1923	5.30404e+02	1.92300e+03	-2.03588e-02	5.31000e+02
1933	5.33725e+02	1.93300e+03	-2.03613e-02	5.34333e+02
1943	5.37018e+02	1.94300e+03	-2.01965e-02	5.37667e+02
1953	5.40348e+02	1.95300e+03	-2.03316e-02	5.41000e+02
1963	5.43657e+02	1.96300e+03	-2.04517e-02	5.44333e+02
1973	5.46961e+02	1.97300e+03	-2.04169e-02	5.47667e+02
1983	5.50284e+02	1.98300e+03	-2.05064e-02	5.51000e+02
1993	5.53592e+02	1.99300e+03	-2.06116e-02	5.54333e+02
2003	5.56915e+02	2.00300e+03	-2.05491e-02	5.57667e+02
2013	5.60228e+02	2.01300e+03	-2.04785e-02	5.61000e+02
2023	5.63548e+02	2.02300e+03	-2.04541e-02	5.64333e+02
2033	5.66863e+02	2.03300e+03	-2.04300e-02	5.67667e+02
2043	5.70177e+02	2.04300e+03	-2.04659e-02	5.71000e+02
2053	5.73493e+02	2.05300e+03	-2.04460e-02	5.74333e+02
2063	5.76804e+02	2.06300e+03	-2.06182e-02	5.77667e+02
2073	5.80131e+02	2.07300e+03	-2.05145e-02	5.81000e+02
2083	5.83464e+02	2.08300e+03	-2.04504e-02	5.84333e+02
2093	5.86761e+02	2.09300e+03	-2.05136e-02	5.87667e+02
2103	5.90094e+02	2.10300e+03	-2.05954e-02	5.91000e+02
2113	5.93407e+02	2.11300e+03	-2.05918e-02	5.94333e+02
2123	5.96729e+02	2.12300e+03	-2.06405e-02	5.97667e+02
2133	6.00042e+02	2.13300e+03	-2.06615e-02	6.01000e+02
2143	6.03364e+02	2.14300e+03	-2.05353e-02	6.04333e+02
2153	6.06689e+02	2.15300e+03	-2.05654e-02	6.07667e+02
2163	6.10004e+02	2.16300e+03	-2.05718e-02	6.11000e+02
2173	6.13318e+02	2.17300e+03	-2.05589e-02	6.14333e+02
2183	6.16652e+02	2.18300e+03	-2.04805e-02	6.17667e+02
2193	6.19970e+02	2.19300e+03	-2.06604e-02	6.21000e+02
2203	6.23291e+02	2.20300e+03	-2.05992e-02	6.24333e+02
2213	6.26624e+02	2.21300e+03	-2.06159e-02	6.27667e+02
2223	6.29947e+02	2.22300e+03	-2.06192e-02	6.31000e+02
2233	6.33275e+02	2.23300e+03	-2.05696e-02	6.34333e+02
2243	6.36607e+02	2.24300e+03	-2.05866e-02	6.37667e+02
2253	6.39935e+02	2.25300e+03	-2.06984e-02	6.41000e+02
2263	6.43259e+02	2.26300e+03	-2.06187e-02	6.44333e+02
2273	6.46586e+02	2.27300e+03	-2.07019e-02	6.47667e+02
2283	6.49917e+02	2.28300e+03	-2.06669e-02	6.51000e+02
2293	6.53238e+02	2.29300e+03	-2.05970e-02	6.54333e+02
2303	6.56579e+02	2.30300e+03	-2.05775e-02	6.57667e+02
2313	6.59888e+02	2.31300e+03	-2.05571e-02	6.61000e+02
2323	6.63208e+02	2.32300e+03	-2.05281e-02	6.64333e+02
2333	6.66527e+02	2.33300e+03	-2.06697e-02	6.67667e+02
2343	6.69858e+02	2.34300e+03	-2.06287e-02	6.71000e+02
2353	6.73194e+02	2.35300e+03	-2.06036e-02	6.74333e+02
2363	6.76518e+02	2.36300e+03	-2.06389e-02	6.77667e+02
2373	6.79855e+02	2.37300e+03	-2.07712e-02	6.81000e+02
2383	6.83189e+02	2.38300e+03	-2.07237e-02	6.84333e+02
2393	6.86515e+02	2.39300e+03	-2.07950e-02	6.87667e+02
2403	6.89854e+02	2.40300e+03	-2.08778e-02	6.91000e+02
2413	6.92073e+02	2.41300e+03	-2.09577e-02	6.94333e+02
2423	6.93893e+02	2.42300e+03	-2.09286e-02	6.97667e+02
2430	6.94878e+02	2.43000e+03	-2.08291e-02	7.00000e+02