File: Experiments/TGA/TUBS/tga_nonisotherm/tga_dynamic_n2_dyn30_piece_3mg_r3.txt
index	ts	t	weight	tr
[#]	[°C]	[s]	[mg]	[°C]
683	1.30884e+02	6.83000e+02	2.95449e+00	1.31500e+02
689	1.33894e+02	6.89000e+02	2.95444e+00	1.34500e+02
695	1.36904e+02	6.95000e+02	2.95437e+00	1.37500e+02
701	1.39911e+02	7.01000e+02	2.95423e+00	1.40500e+02
707	1.42931e+02	7.07000e+02	2.95412e+00	1.43500e+02
713	1.45937e+02	7.13000e+02	2.95406e+00	1.46500e+02
719	1.48951e+02	7.19000e+02	2.95399e+00	1.49500e+02
725	1.51966e+02	7.25000e+02	2.95377e+00	1.52500e+02
731	1.54978e+02	7.31000e+02	2.95355e+00	1.55500e+02
737	1.58003e+02	7.37000e+02	2.95333e+00	1.58500e+02
743	1.61025e+02	7.43000e+02	2.95311e+00	1.61500e+02
749	1.64053e+02	7.49000e+02	2.95281e+00	1.64500e+02
755	1.67063e+02	7.55000e+02	2.95253e+00	1.67500e+02
761	1.70110e+02	7.61000e+02	2.95225e+00	1.70500e+02
767	1.73122e+02	7.67000e+02	2.95193e+00	1.73500e+02
773	1.76158e+02	7.73000e+02	2.95164e+00	1.76500e+02
779	1.79211e+02	7.79000e+02	2.95129e+00	1.79500e+02
785	1.82249e+02	7.85000e+02	2.95080e+00	1.82500e+02
791	1.85287e+02	7.91000e+02	2.95027e+00	1.85500e+02
797	1.88325e+02	7.97000e+02	2.94937e+00	1.88500e+02
803	1.91379e+02	8.03000e+02	2.94826e+00	1.91500e+02
809	1.94432e+02	8.09000e+02	2.94706e+00	1.94500e+02
815	1.97486e+02	8.15000e+02	2.94560e+00	1.97500e+02
821	2.00523e+02	8.21000e+02	2.94381e+00	2.00500e+02
827	2.03573e+02	8.27000e+02	2.94173e+00	2.03500e+02
833	2.06617e+02	8.33000e+02	2.93954e+00	2.06500e+02
839	2.09672e+02	8.39000e+02	2.93718e+00	2.09500e+02
845	2.12722e+02	8.45000e+02	2.93466e+00	2.12500e+02
851	2.15769e+02	8.51000e+02	2.93213e+00	2.15500e+02
857	2.18824e+02	8.57000e+02	2.92965e+00	2.18500e+02
863	2.21868e+02	8.63000e+02	2.92710e+00	2.21500e+02
869	2.24923e+02	8.69000e+02	2.92450e+00	2.24500e+02
875	2.27970e+02	8.75000e+02	2.92182e+00	2.27500e+02
881	2.31027e+02	8.81000e+02	2.91899e+00	2.30500e+02
887	2.34075e+02	8.87000e+02	2.91604e+00	2.33500e+02
893	2.37120e+02	8.93000e+02	2.91307e+00	2.36500e+02
899	2.40157e+02	8.99000e+02	2.90998e+00	2.39500e+02
905	2.43198e+02	9.05000e+02	2.90691e+00	2.42500e+02
911	2.46246e+02	9.11000e+02	2.90374e+00	2.45500e+02
917	2.49286e+02	9.17000e+02	2.90054e+00	2.48500e+02
923	2.52329e+02	9.23000e+02	2.89747e+00	2.51500e+02
929	2.55389e+02	9.29000e+02	2.89423e+00	2.54500e+02
935	2.58437e+02	9.35000e+02	2.89091e+00	2.57500e+02
941	2.61488e+02	9.41000e+02	2.88760e+00	2.60500e+02
947	2.64532e+02	9.47000e+02	2.88437e+00	2.63500e+02
953	2.67570e+02	9.53000e+02	2.88111e+00	2.66500e+02
959	2.70595e+02	9.59000e+02	2.87774e+00	2.69500e+02
965	2.73625e+02	9.65000e+02	2.87435e+00	2.72500e+02
971	2.76671e+02	9.71000e+02	2.87076e+00	2.75500e+02
977	2.79708e+02	9.77000e+02	2.86701e+00	2.78500e+02
983	2.82733e+02	9.83000e+02	2.86341e+00	2.81500e+02
989	2.85764e+02	9.89000e+02	2.85961e+00	2.84500e+02
995	2.88803e+02	9.95000e+02	2.85509e+00	2.87500e+02
1001	2.91836e+02	1.00100e+03	2.85081e+00	2.90500e+02
1007	2.94856e+02	1.00700e+03	2.84604e+00	2.93500e+02
1013	2.97874e+02	1.01300e+03	2.84035e+00	2.96500e+02
1019	3.00917e+02	1.01900e+03	2.83458e+00	2.99500e+02
1025	3.03927e+02	1.02500e+03	2.82841e+00	3.02500e+02
1031	3.06960e+02	1.03100e+03	2.82147e+00	3.05500e+02
1037	3.09979e+02	1.03700e+03	2.81378e+00	3.08500e+02
1043	3.13025e+02	1.04300e+03	2.80539e+00	3.11500e+02
1049	3.16082e+02	1.04900e+03	2.79612e+00	3.14500e+02
1055	3.19107e+02	1.05500e+03	2.78638e+00	3.17500e+02
1061	3.22106e+02	1.06100e+03	2.77637e+00	3.20500e+02
1067	3.25136e+02	1.06700e+03	2.76624e+00	3.23500e+02
1073	3.28161e+02	1.07300e+03	2.75590e+00	3.26500e+02
1079	3.31192e+02	1.07900e+03	2.74498e+00	3.29500e+02
1085	3.34229e+02	1.08500e+03	2.73303e+00	3.32500e+02
1091	3.37252e+02	1.09100e+03	2.71974e+00	3.35500e+02
1097	3.40272e+02	1.09700e+03	2.70446e+00	3.38500e+02
1103	3.43249e+02	1.10300e+03	2.68672e+00	3.41500e+02
1109	3.46228e+02	1.10900e+03	2.66546e+00	3.44500e+02
1115	3.49217e+02	1.11500e+03	2.64027e+00	3.47500e+02
1121	3.52228e+02	1.12100e+03	2.60941e+00	3.50500e+02
1127	3.55227e+02	1.12700e+03	2.57235e+00	3.53500e+02
1133	3.58199e+02	1.13300e+03	2.52548e+00	3.56500e+02
1139	3.61198e+02	1.13900e+03	2.46718e+00	3.59500e+02
1145	3.64187e+02	1.14500e+03	2.39609e+00	3.62500e+02
1151	3.67266e+02	1.15100e+03	2.31255e+00	3.65500e+02
1157	3.70386e+02	1.15700e+03	2.21432e+00	3.68500e+02
1163	3.73251e+02	1.16300e+03	2.10316e+00	3.71500e+02
1169	3.76193e+02	1.16900e+03	1.97763e+00	3.74500e+02
1175	3.79157e+02	1.17500e+03	1.84179e+00	3.77500e+02
1181	3.82047e+02	1.18100e+03	1.69669e+00	3.80500e+02
1187	3.84936e+02	1.18700e+03	1.54352e+00	3.83500e+02
1193	3.87840e+02	1.19300e+03	1.38206e+00	3.86500e+02
1199	3.90772e+02	1.19900e+03	1.22361e+00	3.89500e+02
1205	3.93716e+02	1.20500e+03	1.07318e+00	3.92500e+02
1211	3.96658e+02	1.21100e+03	9.25704e-01	3.95500e+02
1217	3.99637e+02	1.21700e+03	7.82281e-01	3.98500e+02
1223	4.02653e+02	1.22300e+03	6.43399e-01	4.01500e+02
1229	4.05674e+02	1.22900e+03	5.14905e-01	4.04500e+02
1235	4.08711e+02	1.23500e+03	4.02142e-01	4.07500e+02
1241	4.11777e+02	1.24100e+03	3.09326e-01	4.10500e+02
1247	4.14834e+02	1.24700e+03	2.33557e-01	4.13500e+02
1253	4.17892e+02	1.25300e+03	1.75956e-01	4.16500e+02
1259	4.20942e+02	1.25900e+03	1.32260e-01	4.19500e+02
1265	4.23971e+02	1.26500e+03	1.01500e-01	4.22500e+02
1271	4.27001e+02	1.27100e+03	7.88434e-02	4.25500e+02
1277	4.30009e+02	1.27700e+03	6.28568e-02	4.28500e+02
1283	4.33019e+02	1.28300e+03	5.08693e-02	4.31500e+02
1289	4.36029e+02	1.28900e+03	4.22481e-02	4.34500e+02
1295	4.39034e+02	1.29500e+03	3.54991e-02	4.37500e+02
1301	4.42043e+02	1.30100e+03	3.02925e-02	4.40500e+02
1307	4.45078e+02	1.30700e+03	2.60432e-02	4.43500e+02
1313	4.48089e+02	1.31300e+03	2.27307e-02	4.46500e+02
1319	4.51087e+02	1.31900e+03	2.01801e-02	4.49500e+02
1325	4.54081e+02	1.32500e+03	1.84963e-02	4.52500e+02
1331	4.57065e+02	1.33100e+03	1.74339e-02	4.55500e+02
1337	4.60044e+02	1.33700e+03	1.68950e-02	4.58500e+02
1343	4.63021e+02	1.34300e+03	1.66813e-02	4.61500e+02
1349	4.66010e+02	1.34900e+03	1.64823e-02	4.64500e+02
1355	4.68967e+02	1.35500e+03	1.62680e-02	4.67500e+02
1361	4.71935e+02	1.36100e+03	1.61786e-02	4.70500e+02
1367	4.74900e+02	1.36700e+03	1.61387e-02	4.73500e+02
1373	4.77875e+02	1.37300e+03	1.59419e-02	4.76500e+02
1379	4.80869e+02	1.37900e+03	1.57419e-02	4.79500e+02
1385	4.83853e+02	1.38500e+03	1.56945e-02	4.82500e+02
1391	4.86829e+02	1.39100e+03	1.57424e-02	4.85500e+02
1397	4.89780e+02	1.39700e+03	1.57523e-02	4.88500e+02
1403	4.92765e+02	1.40300e+03	1.55787e-02	4.91500e+02
1409	4.95728e+02	1.40900e+03	1.53366e-02	4.94500e+02
1415	4.98716e+02	1.41500e+03	1.52540e-02	4.97500e+02
1421	5.01724e+02	1.42100e+03	1.51421e-02	5.00500e+02
1427	5.04712e+02	1.42700e+03	1.50244e-02	5.03500e+02
1433	5.07707e+02	1.43300e+03	1.50087e-02	5.06500e+02
1439	5.10669e+02	1.43900e+03	1.50893e-02	5.09500e+02
1445	5.13640e+02	1.44500e+03	1.49027e-02	5.12500e+02
1451	5.16630e+02	1.45100e+03	1.45895e-02	5.15500e+02
1457	5.19644e+02	1.45700e+03	1.48184e-02	5.18500e+02
1463	5.22616e+02	1.46300e+03	1.51267e-02	5.21500e+02
1469	5.25596e+02	1.46900e+03	1.49393e-02	5.24500e+02
1475	5.28546e+02	1.47500e+03	1.47493e-02	5.27500e+02
1481	5.31512e+02	1.48100e+03	1.46947e-02	5.30500e+02
1487	5.34474e+02	1.48700e+03	1.46338e-02	5.33500e+02
1493	5.37451e+02	1.49300e+03	1.46408e-02	5.36500e+02
1499	5.40439e+02	1.49900e+03	1.45783e-02	5.39500e+02
1505	5.43480e+02	1.50500e+03	1.44814e-02	5.42500e+02
1511	5.46433e+02	1.51100e+03	1.44515e-02	5.45500e+02
1517	5.49537e+02	1.51700e+03	1.43984e-02	5.48500e+02
1523	5.52565e+02	1.52300e+03	1.44070e-02	5.51500e+02
1529	5.55442e+02	1.52900e+03	1.43159e-02	5.54500e+02
1535	5.58424e+02	1.53500e+03	1.39928e-02	5.57500e+02
1541	5.61381e+02	1.54100e+03	1.43309e-02	5.60500e+02
1547	5.64378e+02	1.54700e+03	1.44030e-02	5.63500e+02
1553	5.67336e+02	1.55300e+03	1.42547e-02	5.66500e+02
1559	5.70318e+02	1.55900e+03	1.42769e-02	5.69500e+02
1565	5.73286e+02	1.56500e+03	1.41903e-02	5.72500e+02
1571	5.76287e+02	1.57100e+03	1.41680e-02	5.75500e+02
1577	5.79293e+02	1.57700e+03	1.42599e-02	5.78500e+02
1583	5.82307e+02	1.58300e+03	1.42978e-02	5.81500e+02
1589	5.85275e+02	1.58900e+03	1.43021e-02	5.84500e+02
1595	5.88268e+02	1.59500e+03	1.43111e-02	5.87500e+02
1601	5.91273e+02	1.60100e+03	1.42640e-02	5.90500e+02
1607	5.94364e+02	1.60700e+03	1.42082e-02	5.93500e+02
1613	5.97328e+02	1.61300e+03	1.41983e-02	5.96500e+02
1619	6.00477e+02	1.61900e+03	1.41154e-02	5.99500e+02
1625	6.03556e+02	1.62500e+03	1.39706e-02	6.02500e+02
1631	6.06415e+02	1.63100e+03	1.39467e-02	6.05500e+02
1637	6.09345e+02	1.63700e+03	1.40066e-02	6.08500e+02
1643	6.12327e+02	1.64300e+03	1.40229e-02	6.11500e+02
1649	6.15261e+02	1.64900e+03	1.39635e-02	6.14500e+02
1655	6.18225e+02	1.65500e+03	1.39351e-02	6.17500e+02
1661	6.21125e+02	1.66100e+03	1.39020e-02	6.20500e+02
1667	6.23893e+02	1.66700e+03	1.38221e-02	6.23500e+02
1673	6.26801e+02	1.67300e+03	1.37995e-02	6.26500e+02
1679	6.29756e+02	1.67900e+03	1.37862e-02	6.29500e+02
1685	6.32655e+02	1.68500e+03	1.36408e-02	6.32500e+02
1691	6.35569e+02	1.69100e+03	1.35819e-02	6.35500e+02
1697	6.38521e+02	1.69700e+03	1.36765e-02	6.38500e+02
1703	6.41454e+02	1.70300e+03	1.37226e-02	6.41500e+02
1709	6.44465e+02	1.70900e+03	1.36992e-02	6.44500e+02
1715	6.47444e+02	1.71500e+03	1.36727e-02	6.47500e+02
1721	6.50453e+02	1.72100e+03	1.33358e-02	6.50500e+02
1727	6.53466e+02	1.72700e+03	1.32429e-02	6.53500e+02
1733	6.56488e+02	1.73300e+03	1.39008e-02	6.56500e+02
1739	6.59568e+02	1.73900e+03	1.38863e-02	6.59500e+02
1745	6.62660e+02	1.74500e+03	1.36055e-02	6.62500e+02
1751	6.65666e+02	1.75100e+03	1.34913e-02	6.65500e+02
1757	6.68651e+02	1.75700e+03	1.36172e-02	6.68500e+02
1763	6.71610e+02	1.76300e+03	1.36608e-02	6.71500e+02
1769	6.74607e+02	1.76900e+03	1.35306e-02	6.74500e+02
1775	6.77513e+02	1.77500e+03	1.35730e-02	6.77500e+02
1781	6.80473e+02	1.78100e+03	1.34940e-02	6.80500e+02
1787	6.83371e+02	1.78700e+03	1.32623e-02	6.83500e+02
1793	6.86306e+02	1.79300e+03	1.31592e-02	6.86500e+02
1799	6.87986e+02	1.79900e+03	1.35122e-02	6.89500e+02
1805	6.89872e+02	1.80500e+03	1.36531e-02	6.92500e+02
1811	6.91436e+02	1.81100e+03	1.34392e-02	6.95500e+02
1817	6.92756e+02	1.81700e+03	1.35659e-02	6.98500e+02
1820	6.93337e+02	1.82000e+03	1.36371e-02	7.00000e+02