File: Experiments/TGA/TUBS/tga_nonisotherm/tga_dynamic_n2_dyn5_powder_1mg_r3.txt
index	ts	t	weight	tr
[#]	[°C]	[s]	[mg]	[°C]
1083	1.30372e+02	1.08300e+03	1.00935e+00	1.30250e+02
1120	1.33455e+02	1.12000e+03	1.00912e+00	1.33333e+02
1157	1.36544e+02	1.15700e+03	1.00873e+00	1.36417e+02
1194	1.39634e+02	1.19400e+03	1.00824e+00	1.39500e+02
1231	1.42727e+02	1.23100e+03	1.00769e+00	1.42583e+02
1268	1.45813e+02	1.26800e+03	1.00706e+00	1.45667e+02
1305	1.48904e+02	1.30500e+03	1.00606e+00	1.48750e+02
1342	1.51990e+02	1.34200e+03	1.00512e+00	1.51833e+02
1379	1.55090e+02	1.37900e+03	1.00420e+00	1.54917e+02
1416	1.58182e+02	1.41600e+03	1.00272e+00	1.58000e+02
1453	1.61293e+02	1.45300e+03	1.00068e+00	1.61083e+02
1490	1.64393e+02	1.49000e+03	9.98054e-01	1.64167e+02
1527	1.67481e+02	1.52700e+03	9.94612e-01	1.67250e+02
1564	1.70560e+02	1.56400e+03	9.90363e-01	1.70333e+02
1601	1.73646e+02	1.60100e+03	9.85722e-01	1.73417e+02
1638	1.76746e+02	1.63800e+03	9.81272e-01	1.76500e+02
1675	1.79841e+02	1.67500e+03	9.77182e-01	1.79583e+02
1712	1.82930e+02	1.71200e+03	9.73848e-01	1.82667e+02
1749	1.86018e+02	1.74900e+03	9.71355e-01	1.85750e+02
1786	1.89107e+02	1.78600e+03	9.69762e-01	1.88833e+02
1823	1.92211e+02	1.82300e+03	9.68804e-01	1.91917e+02
1860	1.95297e+02	1.86000e+03	9.67967e-01	1.95000e+02
1897	1.98372e+02	1.89700e+03	9.67105e-01	1.98083e+02
1934	2.01484e+02	1.93400e+03	9.66263e-01	2.01167e+02
1971	2.04565e+02	1.97100e+03	9.65650e-01	2.04250e+02
2008	2.07649e+02	2.00800e+03	9.64796e-01	2.07333e+02
2045	2.10723e+02	2.04500e+03	9.64333e-01	2.10417e+02
2082	2.13825e+02	2.08200e+03	9.63901e-01	2.13500e+02
2119	2.16912e+02	2.11900e+03	9.63496e-01	2.16583e+02
2156	2.19983e+02	2.15600e+03	9.63111e-01	2.19667e+02
2193	2.23091e+02	2.19300e+03	9.62878e-01	2.22750e+02
2230	2.26183e+02	2.23000e+03	9.62606e-01	2.25833e+02
2267	2.29265e+02	2.26700e+03	9.62283e-01	2.28917e+02
2304	2.32332e+02	2.30400e+03	9.61925e-01	2.32000e+02
2341	2.35415e+02	2.34100e+03	9.61716e-01	2.35083e+02
2378	2.38511e+02	2.37800e+03	9.61456e-01	2.38167e+02
2415	2.41594e+02	2.41500e+03	9.61204e-01	2.41250e+02
2452	2.44684e+02	2.45200e+03	9.60840e-01	2.44333e+02
2489	2.47763e+02	2.48900e+03	9.60304e-01	2.47417e+02
2526	2.50857e+02	2.52600e+03	9.59842e-01	2.50500e+02
2563	2.53935e+02	2.56300e+03	9.59296e-01	2.53583e+02
2600	2.57023e+02	2.60000e+03	9.58507e-01	2.56667e+02
2637	2.60100e+02	2.63700e+03	9.57568e-01	2.59750e+02
2674	2.63190e+02	2.67400e+03	9.56597e-01	2.62833e+02
2711	2.66264e+02	2.71100e+03	9.55121e-01	2.65917e+02
2748	2.69344e+02	2.74800e+03	9.53397e-01	2.69000e+02
2785	2.72419e+02	2.78500e+03	9.51346e-01	2.72083e+02
2822	2.75507e+02	2.82200e+03	9.48854e-01	2.75167e+02
2859	2.78594e+02	2.85900e+03	9.45721e-01	2.78250e+02
2896	2.81669e+02	2.89600e+03	9.41961e-01	2.81333e+02
2933	2.84762e+02	2.93300e+03	9.37681e-01	2.84417e+02
2970	2.87816e+02	2.97000e+03	9.32755e-01	2.87500e+02
3007	2.90913e+02	3.00700e+03	9.27582e-01	2.90583e+02
3044	2.93994e+02	3.04400e+03	9.21962e-01	2.93667e+02
3081	2.97071e+02	3.08100e+03	9.16489e-01	2.96750e+02
3118	3.00150e+02	3.11800e+03	9.11067e-01	2.99833e+02
3155	3.03231e+02	3.15500e+03	9.05428e-01	3.02917e+02
3192	3.06310e+02	3.19200e+03	8.99520e-01	3.06000e+02
3229	3.09374e+02	3.22900e+03	8.92772e-01	3.09083e+02
3266	3.12459e+02	3.26600e+03	8.85168e-01	3.12167e+02
3303	3.15527e+02	3.30300e+03	8.76067e-01	3.15250e+02
3340	3.18605e+02	3.34000e+03	8.65007e-01	3.18333e+02
3377	3.21686e+02	3.37700e+03	8.51100e-01	3.21417e+02
3414	3.24754e+02	3.41400e+03	8.34277e-01	3.24500e+02
3451	3.27830e+02	3.45100e+03	8.13407e-01	3.27583e+02
3488	3.30903e+02	3.48800e+03	7.88215e-01	3.30667e+02
3525	3.33976e+02	3.52500e+03	7.57945e-01	3.33750e+02
3562	3.37040e+02	3.56200e+03	7.22617e-01	3.36833e+02
3599	3.40105e+02	3.59900e+03	6.82147e-01	3.39917e+02
3636	3.43180e+02	3.63600e+03	6.37086e-01	3.43000e+02
3673	3.46258e+02	3.67300e+03	5.88062e-01	3.46083e+02
3710	3.49321e+02	3.71000e+03	5.35406e-01	3.49167e+02
3747	3.52388e+02	3.74700e+03	4.81159e-01	3.52250e+02
3784	3.55477e+02	3.78400e+03	4.26589e-01	3.55333e+02
3821	3.58544e+02	3.82100e+03	3.70752e-01	3.58417e+02
3858	3.61629e+02	3.85800e+03	3.15482e-01	3.61500e+02
3895	3.64710e+02	3.89500e+03	2.62882e-01	3.64583e+02
3932	3.67788e+02	3.93200e+03	2.14477e-01	3.67667e+02
3969	3.70882e+02	3.96900e+03	1.71332e-01	3.70750e+02
4006	3.73949e+02	4.00600e+03	1.33711e-01	3.73833e+02
4043	3.77037e+02	4.04300e+03	1.01858e-01	3.76917e+02
4080	3.80110e+02	4.08000e+03	7.56102e-02	3.80000e+02
4117	3.83179e+02	4.11700e+03	5.46896e-02	3.83083e+02
4154	3.86259e+02	4.15400e+03	3.80562e-02	3.86167e+02
4191	3.89336e+02	4.19100e+03	2.57100e-02	3.89250e+02
4228	3.92415e+02	4.22800e+03	1.62085e-02	3.92333e+02
4265	3.95483e+02	4.26500e+03	9.81106e-03	3.95417e+02
4302	3.98554e+02	4.30200e+03	5.16745e-03	3.98500e+02
4339	4.01629e+02	4.33900e+03	1.71027e-03	4.01583e+02
4376	4.04704e+02	4.37600e+03	-5.70011e-04	4.04667e+02
4413	4.07763e+02	4.41300e+03	-2.35374e-03	4.07750e+02
4450	4.10835e+02	4.45000e+03	-3.55260e-03	4.10833e+02
4487	4.13906e+02	4.48700e+03	-4.24170e-03	4.13917e+02
4524	4.16968e+02	4.52400e+03	-4.66620e-03	4.17000e+02
4561	4.20035e+02	4.56100e+03	-4.94020e-03	4.20083e+02
4598	4.23096e+02	4.59800e+03	-4.93301e-03	4.23167e+02
4635	4.26170e+02	4.63500e+03	-5.26134e-03	4.26250e+02
4672	4.29220e+02	4.67200e+03	-4.97046e-03	4.29333e+02
4709	4.32299e+02	4.70900e+03	-5.20932e-03	4.32417e+02
4746	4.35359e+02	4.74600e+03	-5.17892e-03	4.35500e+02
4783	4.38418e+02	4.78300e+03	-5.19470e-03	4.38583e+02
4820	4.41480e+02	4.82000e+03	-5.88793e-03	4.41667e+02
4857	4.44561e+02	4.85700e+03	-5.20712e-03	4.44750e+02
4894	4.47615e+02	4.89400e+03	-5.51276e-03	4.47833e+02
4931	4.50678e+02	4.93100e+03	-5.39212e-03	4.50917e+02
4968	4.53743e+02	4.96800e+03	-5.54522e-03	4.54000e+02
5005	4.56804e+02	5.00500e+03	-5.56365e-03	4.57083e+02
5042	4.59858e+02	5.04200e+03	-5.52501e-03	4.60167e+02
5079	4.62917e+02	5.07900e+03	-5.53637e-03	4.63250e+02
5116	4.65995e+02	5.11600e+03	-5.44463e-03	4.66333e+02
5153	4.69028e+02	5.15300e+03	-5.51422e-03	4.69417e+02
5190	4.72108e+02	5.19000e+03	-5.52629e-03	4.72500e+02
5227	4.75176e+02	5.22700e+03	-5.43691e-03	4.75583e+02
5264	4.78226e+02	5.26400e+03	-5.46345e-03	4.78667e+02
5301	4.81285e+02	5.30100e+03	-5.51237e-03	4.81750e+02
5338	4.84341e+02	5.33800e+03	-5.42232e-03	4.84833e+02
5375	4.87390e+02	5.37500e+03	-5.52682e-03	4.87917e+02
5412	4.90452e+02	5.41200e+03	-5.50900e-03	4.91000e+02
5449	4.93520e+02	5.44900e+03	-5.54579e-03	4.94083e+02
5486	4.96589e+02	5.48600e+03	-5.64222e-03	4.97167e+02
5523	4.99655e+02	5.52300e+03	-5.59000e-03	5.00250e+02
5560	5.02726e+02	5.56000e+03	-5.37046e-03	5.03333e+02
5597	5.05809e+02	5.59700e+03	-5.40424e-03	5.06417e+02
5634	5.08873e+02	5.63400e+03	-5.28186e-03	5.09500e+02
5671	5.11929e+02	5.67100e+03	-5.19563e-03	5.12583e+02
5708	5.15028e+02	5.70800e+03	-5.28396e-03	5.15667e+02
5745	5.18101e+02	5.74500e+03	-5.31692e-03	5.18750e+02
5782	5.21157e+02	5.78200e+03	-5.17429e-03	5.21833e+02
5819	5.24229e+02	5.81900e+03	-5.32526e-03	5.24917e+02
5856	5.27312e+02	5.85600e+03	-5.24650e-03	5.28000e+02
5893	5.30370e+02	5.89300e+03	-5.18021e-03	5.31083e+02
5930	5.33451e+02	5.93000e+03	-5.03411e-03	5.34167e+02
5967	5.36524e+02	5.96700e+03	-5.10595e-03	5.37250e+02
6004	5.39603e+02	6.00400e+03	-5.34270e-03	5.40333e+02
6041	5.42669e+02	6.04100e+03	-5.32550e-03	5.43417e+02
6078	5.45750e+02	6.07800e+03	-5.27479e-03	5.46500e+02
6115	5.48842e+02	6.11500e+03	-5.17979e-03	5.49583e+02
6152	5.51916e+02	6.15200e+03	-5.25521e-03	5.52667e+02
6189	5.55000e+02	6.18900e+03	-5.13238e-03	5.55750e+02
6226	5.58078e+02	6.22600e+03	-5.09120e-03	5.58833e+02
6263	5.61159e+02	6.26300e+03	-5.27777e-03	5.61917e+02
6300	5.64255e+02	6.30000e+03	-5.12407e-03	5.65000e+02
6337	5.67324e+02	6.33700e+03	-5.07937e-03	5.68083e+02
6374	5.70410e+02	6.37400e+03	-5.11561e-03	5.71167e+02
6411	5.73482e+02	6.41100e+03	-4.84480e-03	5.74250e+02
6448	5.76558e+02	6.44800e+03	-5.01285e-03	5.77333e+02
6485	5.79647e+02	6.48500e+03	-4.90297e-03	5.80417e+02
6522	5.82732e+02	6.52200e+03	-4.76924e-03	5.83500e+02
6559	5.85819e+02	6.55900e+03	-4.83675e-03	5.86583e+02
6596	5.88898e+02	6.59600e+03	-4.92310e-03	5.89667e+02
6633	5.91984e+02	6.63300e+03	-4.86217e-03	5.92750e+02
6670	5.95062e+02	6.67000e+03	-4.95927e-03	5.95833e+02
6707	5.98148e+02	6.70700e+03	-4.92094e-03	5.98917e+02
6744	6.01231e+02	6.74400e+03	-4.89756e-03	6.02000e+02
6781	6.04313e+02	6.78100e+03	-4.95424e-03	6.05083e+02
6818	6.07394e+02	6.81800e+03	-5.00988e-03	6.08167e+02
6855	6.10505e+02	6.85500e+03	-4.80771e-03	6.11250e+02
6892	6.13585e+02	6.89200e+03	-4.75631e-03	6.14333e+02
6929	6.16683e+02	6.92900e+03	-5.06568e-03	6.17417e+02
6966	6.19761e+02	6.96600e+03	-4.99227e-03	6.20500e+02
7003	6.22860e+02	7.00300e+03	-5.03316e-03	6.23583e+02
7040	6.25952e+02	7.04000e+03	-4.97582e-03	6.26667e+02
7077	6.29035e+02	7.07700e+03	-4.98002e-03	6.29750e+02
7114	6.32138e+02	7.11400e+03	-5.06104e-03	6.32833e+02
7151	6.35216e+02	7.15100e+03	-4.94546e-03	6.35917e+02
7188	6.38314e+02	7.18800e+03	-4.99746e-03	6.39000e+02
7225	6.41411e+02	7.22500e+03	-5.02079e-03	6.42083e+02
7262	6.44487e+02	7.26200e+03	-5.16875e-03	6.45167e+02
7299	6.47581e+02	7.29900e+03	-5.20909e-03	6.48250e+02
7336	6.50670e+02	7.33600e+03	-5.15142e-03	6.51333e+02
7373	6.53766e+02	7.37300e+03	-5.10368e-03	6.54417e+02
7410	6.56862e+02	7.41000e+03	-5.12660e-03	6.57500e+02
7447	6.59954e+02	7.44700e+03	-5.09279e-03	6.60583e+02
7484	6.63044e+02	7.48400e+03	-5.15605e-03	6.63667e+02
7521	6.66143e+02	7.52100e+03	-5.00750e-03	6.66750e+02
7558	6.69234e+02	7.55800e+03	-4.76805e-03	6.69833e+02
7595	6.72317e+02	7.59500e+03	-4.74250e-03	6.72917e+02
7632	6.75412e+02	7.63200e+03	-4.85835e-03	6.76000e+02
7669	6.78500e+02	7.66900e+03	-4.71980e-03	6.79083e+02
7706	6.81610e+02	7.70600e+03	-4.75645e-03	6.82167e+02
7743	6.84704e+02	7.74300e+03	-4.84147e-03	6.85250e+02
7780	6.87799e+02	7.78000e+03	-4.67243e-03	6.88333e+02
7817	6.90903e+02	7.81700e+03	-4.68543e-03	6.91417e+02
7854	6.94003e+02	7.85400e+03	-4.79277e-03	6.94500e+02
7891	6.97107e+02	7.89100e+03	-4.84467e-03	6.97583e+02
7920	6.98585e+02	7.92000e+03	-4.80549e-03	7.00000e+02