File: Experiments/TGA/TUBS/tga_nonisotherm/tga_dynamic_n2_dyn30_powder_2mg_r3.txt
index	ts	t	weight	tr
[#]	[°C]	[s]	[mg]	[°C]
683	1.30780e+02	6.83000e+02	1.97511e+00	1.31500e+02
689	1.33769e+02	6.89000e+02	1.97498e+00	1.34500e+02
695	1.36760e+02	6.95000e+02	1.97476e+00	1.37500e+02
701	1.39767e+02	7.01000e+02	1.97434e+00	1.40500e+02
707	1.42765e+02	7.07000e+02	1.97392e+00	1.43500e+02
713	1.45765e+02	7.13000e+02	1.97350e+00	1.46500e+02
719	1.48780e+02	7.19000e+02	1.97300e+00	1.49500e+02
725	1.51781e+02	7.25000e+02	1.97227e+00	1.52500e+02
731	1.54806e+02	7.31000e+02	1.97136e+00	1.55500e+02
737	1.57818e+02	7.37000e+02	1.97038e+00	1.58500e+02
743	1.60827e+02	7.43000e+02	1.96932e+00	1.61500e+02
749	1.63846e+02	7.49000e+02	1.96815e+00	1.64500e+02
755	1.66864e+02	7.55000e+02	1.96685e+00	1.67500e+02
761	1.69902e+02	7.61000e+02	1.96524e+00	1.70500e+02
767	1.72945e+02	7.67000e+02	1.96339e+00	1.73500e+02
773	1.75977e+02	7.73000e+02	1.96118e+00	1.76500e+02
779	1.78995e+02	7.79000e+02	1.95831e+00	1.79500e+02
785	1.82031e+02	7.85000e+02	1.95451e+00	1.82500e+02
791	1.85064e+02	7.91000e+02	1.94994e+00	1.85500e+02
797	1.88092e+02	7.97000e+02	1.94435e+00	1.88500e+02
803	1.91129e+02	8.03000e+02	1.93813e+00	1.91500e+02
809	1.94168e+02	8.09000e+02	1.93168e+00	1.94500e+02
815	1.97212e+02	8.15000e+02	1.92525e+00	1.97500e+02
821	2.00255e+02	8.21000e+02	1.91923e+00	2.00500e+02
827	2.03305e+02	8.27000e+02	1.91383e+00	2.03500e+02
833	2.06360e+02	8.33000e+02	1.90945e+00	2.06500e+02
839	2.09408e+02	8.39000e+02	1.90590e+00	2.09500e+02
845	2.12466e+02	8.45000e+02	1.90315e+00	2.12500e+02
851	2.15513e+02	8.51000e+02	1.90112e+00	2.15500e+02
857	2.18576e+02	8.57000e+02	1.89961e+00	2.18500e+02
863	2.21626e+02	8.63000e+02	1.89821e+00	2.21500e+02
869	2.24666e+02	8.69000e+02	1.89683e+00	2.24500e+02
875	2.27731e+02	8.75000e+02	1.89536e+00	2.27500e+02
881	2.30786e+02	8.81000e+02	1.89364e+00	2.30500e+02
887	2.33846e+02	8.87000e+02	1.89194e+00	2.33500e+02
893	2.36879e+02	8.93000e+02	1.89043e+00	2.36500e+02
899	2.39898e+02	8.99000e+02	1.88901e+00	2.39500e+02
905	2.42929e+02	9.05000e+02	1.88770e+00	2.42500e+02
911	2.45960e+02	9.11000e+02	1.88638e+00	2.45500e+02
917	2.48997e+02	9.17000e+02	1.88516e+00	2.48500e+02
923	2.52058e+02	9.23000e+02	1.88421e+00	2.51500e+02
929	2.55075e+02	9.29000e+02	1.88335e+00	2.54500e+02
935	2.58131e+02	9.35000e+02	1.88238e+00	2.57500e+02
941	2.61176e+02	9.41000e+02	1.88146e+00	2.60500e+02
947	2.64216e+02	9.47000e+02	1.88072e+00	2.63500e+02
953	2.67265e+02	9.53000e+02	1.87998e+00	2.66500e+02
959	2.70339e+02	9.59000e+02	1.87899e+00	2.69500e+02
965	2.73371e+02	9.65000e+02	1.87790e+00	2.72500e+02
971	2.76391e+02	9.71000e+02	1.87656e+00	2.75500e+02
977	2.79471e+02	9.77000e+02	1.87495e+00	2.78500e+02
983	2.82695e+02	9.83000e+02	1.87319e+00	2.81500e+02
989	2.85906e+02	9.89000e+02	1.87118e+00	2.84500e+02
995	2.89011e+02	9.95000e+02	1.86875e+00	2.87500e+02
1001	2.92095e+02	1.00100e+03	1.86568e+00	2.90500e+02
1007	2.95153e+02	1.00700e+03	1.86175e+00	2.93500e+02
1013	2.98223e+02	1.01300e+03	1.85707e+00	2.96500e+02
1019	3.01268e+02	1.01900e+03	1.85175e+00	2.99500e+02
1025	3.04330e+02	1.02500e+03	1.84566e+00	3.02500e+02
1031	3.07359e+02	1.03100e+03	1.83895e+00	3.05500e+02
1037	3.10440e+02	1.03700e+03	1.83160e+00	3.08500e+02
1043	3.13428e+02	1.04300e+03	1.82374e+00	3.11500e+02
1049	3.16413e+02	1.04900e+03	1.81545e+00	3.14500e+02
1055	3.19401e+02	1.05500e+03	1.80701e+00	3.17500e+02
1061	3.22398e+02	1.06100e+03	1.79851e+00	3.20500e+02
1067	3.25460e+02	1.06700e+03	1.79002e+00	3.23500e+02
1073	3.28494e+02	1.07300e+03	1.78104e+00	3.26500e+02
1079	3.31606e+02	1.07900e+03	1.77102e+00	3.29500e+02
1085	3.34611e+02	1.08500e+03	1.75920e+00	3.32500e+02
1091	3.37591e+02	1.09100e+03	1.74541e+00	3.35500e+02
1097	3.40565e+02	1.09700e+03	1.72873e+00	3.38500e+02
1103	3.43533e+02	1.10300e+03	1.70868e+00	3.41500e+02
1109	3.46525e+02	1.10900e+03	1.68398e+00	3.44500e+02
1115	3.49515e+02	1.11500e+03	1.65456e+00	3.47500e+02
1121	3.52475e+02	1.12100e+03	1.61900e+00	3.50500e+02
1127	3.55412e+02	1.12700e+03	1.57735e+00	3.53500e+02
1133	3.58391e+02	1.13300e+03	1.52858e+00	3.56500e+02
1139	3.61393e+02	1.13900e+03	1.47316e+00	3.59500e+02
1145	3.64393e+02	1.14500e+03	1.41013e+00	3.62500e+02
1151	3.67369e+02	1.15100e+03	1.34091e+00	3.65500e+02
1157	3.70316e+02	1.15700e+03	1.26502e+00	3.68500e+02
1163	3.73303e+02	1.16300e+03	1.18340e+00	3.71500e+02
1169	3.76290e+02	1.16900e+03	1.09603e+00	3.74500e+02
1175	3.79225e+02	1.17500e+03	1.00516e+00	3.77500e+02
1181	3.82257e+02	1.18100e+03	9.11042e-01	3.80500e+02
1187	3.85271e+02	1.18700e+03	8.12470e-01	3.83500e+02
1193	3.88216e+02	1.19300e+03	7.14467e-01	3.86500e+02
1199	3.91187e+02	1.19900e+03	6.19569e-01	3.89500e+02
1205	3.94206e+02	1.20500e+03	5.29526e-01	3.92500e+02
1211	3.97294e+02	1.21100e+03	4.45352e-01	3.95500e+02
1217	4.00373e+02	1.21700e+03	3.69455e-01	3.98500e+02
1223	4.03416e+02	1.22300e+03	3.01720e-01	4.01500e+02
1229	4.06460e+02	1.22900e+03	2.43567e-01	4.04500e+02
1235	4.09517e+02	1.23500e+03	1.93825e-01	4.07500e+02
1241	4.12549e+02	1.24100e+03	1.53134e-01	4.10500e+02
1247	4.15597e+02	1.24700e+03	1.19545e-01	4.13500e+02
1253	4.18710e+02	1.25300e+03	9.32583e-02	4.16500e+02
1259	4.21733e+02	1.25900e+03	7.23879e-02	4.19500e+02
1265	4.24778e+02	1.26500e+03	5.68232e-02	4.22500e+02
1271	4.27809e+02	1.27100e+03	4.51000e-02	4.25500e+02
1277	4.30859e+02	1.27700e+03	3.68524e-02	4.28500e+02
1283	4.33899e+02	1.28300e+03	3.07885e-02	4.31500e+02
1289	4.37151e+02	1.28900e+03	2.66821e-02	4.34500e+02
1295	4.40243e+02	1.29500e+03	2.36552e-02	4.37500e+02
1301	4.43236e+02	1.30100e+03	2.14131e-02	4.40500e+02
1307	4.46277e+02	1.30700e+03	1.96972e-02	4.43500e+02
1313	4.49363e+02	1.31300e+03	1.89044e-02	4.46500e+02
1319	4.52358e+02	1.31900e+03	1.84199e-02	4.49500e+02
1325	4.55403e+02	1.32500e+03	1.79912e-02	4.52500e+02
1331	4.57947e+02	1.33100e+03	1.76561e-02	4.55500e+02
1337	4.60708e+02	1.33700e+03	1.74714e-02	4.58500e+02
1343	4.63680e+02	1.34300e+03	1.73741e-02	4.61500e+02
1349	4.66518e+02	1.34900e+03	1.73989e-02	4.64500e+02
1355	4.69842e+02	1.35500e+03	1.72721e-02	4.67500e+02
1361	4.72641e+02	1.36100e+03	1.70320e-02	4.70500e+02
1367	4.75568e+02	1.36700e+03	1.71371e-02	4.73500e+02
1373	4.78519e+02	1.37300e+03	1.71729e-02	4.76500e+02
1379	4.81455e+02	1.37900e+03	1.69434e-02	4.79500e+02
1385	4.84381e+02	1.38500e+03	1.68085e-02	4.82500e+02
1391	4.87365e+02	1.39100e+03	1.67560e-02	4.85500e+02
1397	4.90468e+02	1.39700e+03	1.67817e-02	4.88500e+02
1403	4.93440e+02	1.40300e+03	1.67007e-02	4.91500e+02
1409	4.96406e+02	1.40900e+03	1.65265e-02	4.94500e+02
1415	4.99322e+02	1.41500e+03	1.65241e-02	4.97500e+02
1421	5.02053e+02	1.42100e+03	1.64288e-02	5.00500e+02
1427	5.04815e+02	1.42700e+03	1.63695e-02	5.03500e+02
1433	5.07579e+02	1.43300e+03	1.64289e-02	5.06500e+02
1439	5.10418e+02	1.43900e+03	1.65127e-02	5.09500e+02
1445	5.13293e+02	1.44500e+03	1.63449e-02	5.12500e+02
1451	5.16216e+02	1.45100e+03	1.60791e-02	5.15500e+02
1457	5.19085e+02	1.45700e+03	1.63125e-02	5.18500e+02
1463	5.21991e+02	1.46300e+03	1.66015e-02	5.21500e+02
1469	5.24880e+02	1.46900e+03	1.64490e-02	5.24500e+02
1475	5.27785e+02	1.47500e+03	1.63624e-02	5.27500e+02
1481	5.30657e+02	1.48100e+03	1.63774e-02	5.30500e+02
1487	5.33542e+02	1.48700e+03	1.63231e-02	5.33500e+02
1493	5.36433e+02	1.49300e+03	1.62838e-02	5.36500e+02
1499	5.39301e+02	1.49900e+03	1.61771e-02	5.39500e+02
1505	5.42218e+02	1.50500e+03	1.60686e-02	5.42500e+02
1511	5.45287e+02	1.51100e+03	1.61063e-02	5.45500e+02
1517	5.48302e+02	1.51700e+03	1.60295e-02	5.48500e+02
1523	5.51394e+02	1.52300e+03	1.60166e-02	5.51500e+02
1529	5.54476e+02	1.52900e+03	1.59363e-02	5.54500e+02
1535	5.57527e+02	1.53500e+03	1.56124e-02	5.57500e+02
1541	5.60535e+02	1.54100e+03	1.59245e-02	5.60500e+02
1547	5.63607e+02	1.54700e+03	1.60774e-02	5.63500e+02
1553	5.66260e+02	1.55300e+03	1.60586e-02	5.66500e+02
1559	5.69098e+02	1.55900e+03	1.61171e-02	5.69500e+02
1565	5.72017e+02	1.56500e+03	1.60246e-02	5.72500e+02
1571	5.74917e+02	1.57100e+03	1.60041e-02	5.75500e+02
1577	5.77834e+02	1.57700e+03	1.60071e-02	5.78500e+02
1583	5.80793e+02	1.58300e+03	1.59571e-02	5.81500e+02
1589	5.83736e+02	1.58900e+03	1.58969e-02	5.84500e+02
1595	5.86745e+02	1.59500e+03	1.59160e-02	5.87500e+02
1601	5.89973e+02	1.60100e+03	1.59656e-02	5.90500e+02
1607	5.93162e+02	1.60700e+03	1.59123e-02	5.93500e+02
1613	5.96040e+02	1.61300e+03	1.58426e-02	5.96500e+02
1619	5.98940e+02	1.61900e+03	1.57631e-02	5.99500e+02
1625	6.01876e+02	1.62500e+03	1.56899e-02	6.02500e+02
1631	6.04860e+02	1.63100e+03	1.56817e-02	6.05500e+02
1637	6.07857e+02	1.63700e+03	1.57016e-02	6.08500e+02
1643	6.10858e+02	1.64300e+03	1.57218e-02	6.11500e+02
1649	6.13843e+02	1.64900e+03	1.56729e-02	6.14500e+02
1655	6.16817e+02	1.65500e+03	1.56791e-02	6.17500e+02
1661	6.19770e+02	1.66100e+03	1.57211e-02	6.20500e+02
1667	6.22758e+02	1.66700e+03	1.56496e-02	6.23500e+02
1673	6.25744e+02	1.67300e+03	1.56303e-02	6.26500e+02
1679	6.28738e+02	1.67900e+03	1.55608e-02	6.29500e+02
1685	6.31722e+02	1.68500e+03	1.55487e-02	6.32500e+02
1691	6.34719e+02	1.69100e+03	1.55795e-02	6.35500e+02
1697	6.37702e+02	1.69700e+03	1.56421e-02	6.38500e+02
1703	6.40705e+02	1.70300e+03	1.57260e-02	6.41500e+02
1709	6.43660e+02	1.70900e+03	1.56534e-02	6.44500e+02
1715	6.46630e+02	1.71500e+03	1.55901e-02	6.47500e+02
1721	6.49620e+02	1.72100e+03	1.53756e-02	6.50500e+02
1727	6.52630e+02	1.72700e+03	1.52896e-02	6.53500e+02
1733	6.55616e+02	1.73300e+03	1.58300e-02	6.56500e+02
1739	6.58571e+02	1.73900e+03	1.59133e-02	6.59500e+02
1745	6.61524e+02	1.74500e+03	1.56247e-02	6.62500e+02
1751	6.64477e+02	1.75100e+03	1.54079e-02	6.65500e+02
1757	6.67438e+02	1.75700e+03	1.55058e-02	6.68500e+02
1763	6.70374e+02	1.76300e+03	1.55775e-02	6.71500e+02
1769	6.73326e+02	1.76900e+03	1.55007e-02	6.74500e+02
1775	6.76277e+02	1.77500e+03	1.54878e-02	6.77500e+02
1781	6.79231e+02	1.78100e+03	1.54168e-02	6.80500e+02
1787	6.82218e+02	1.78700e+03	1.52466e-02	6.83500e+02
1793	6.85185e+02	1.79300e+03	1.52324e-02	6.86500e+02
1799	6.86978e+02	1.79900e+03	1.56836e-02	6.89500e+02
1805	6.88928e+02	1.80500e+03	1.57276e-02	6.92500e+02
1811	6.90527e+02	1.81100e+03	1.55155e-02	6.95500e+02
1817	6.91854e+02	1.81700e+03	1.54929e-02	6.98500e+02
1820	6.92449e+02	1.82000e+03	1.55878e-02	7.00000e+02