File: Experiments/TGA/TUBS/tga_nonisotherm/tga_dynamic_n2_dyn60_powder_2mg_r1.txt
index	ts	t	weight	tr
[#]	[°C]	[s]	[mg]	[°C]
643	1.30606e+02	6.43000e+02	1.99857e+00	1.33000e+02
646	1.33642e+02	6.46000e+02	1.99849e+00	1.36000e+02
649	1.36656e+02	6.49000e+02	1.99838e+00	1.39000e+02
652	1.39666e+02	6.52000e+02	1.99827e+00	1.42000e+02
655	1.42677e+02	6.55000e+02	1.99812e+00	1.45000e+02
658	1.45672e+02	6.58000e+02	1.99791e+00	1.48000e+02
661	1.48664e+02	6.61000e+02	1.99759e+00	1.51000e+02
664	1.51669e+02	6.64000e+02	1.99713e+00	1.54000e+02
667	1.54668e+02	6.67000e+02	1.99659e+00	1.57000e+02
670	1.57654e+02	6.70000e+02	1.99591e+00	1.60000e+02
673	1.60646e+02	6.73000e+02	1.99511e+00	1.63000e+02
676	1.63628e+02	6.76000e+02	1.99422e+00	1.66000e+02
679	1.66624e+02	6.79000e+02	1.99331e+00	1.69000e+02
682	1.69609e+02	6.82000e+02	1.99238e+00	1.72000e+02
685	1.72605e+02	6.85000e+02	1.99137e+00	1.75000e+02
688	1.75597e+02	6.88000e+02	1.99018e+00	1.78000e+02
691	1.78589e+02	6.91000e+02	1.98877e+00	1.81000e+02
694	1.81580e+02	6.94000e+02	1.98703e+00	1.84000e+02
697	1.84567e+02	6.97000e+02	1.98498e+00	1.87000e+02
700	1.87565e+02	7.00000e+02	1.98245e+00	1.90000e+02
703	1.90567e+02	7.03000e+02	1.97945e+00	1.93000e+02
706	1.93559e+02	7.06000e+02	1.97571e+00	1.96000e+02
709	1.96551e+02	7.09000e+02	1.97139e+00	1.99000e+02
712	1.99557e+02	7.12000e+02	1.96662e+00	2.02000e+02
715	2.02552e+02	7.15000e+02	1.96155e+00	2.05000e+02
718	2.05562e+02	7.18000e+02	1.95625e+00	2.08000e+02
721	2.08574e+02	7.21000e+02	1.95111e+00	2.11000e+02
724	2.11587e+02	7.24000e+02	1.94639e+00	2.14000e+02
727	2.14605e+02	7.27000e+02	1.94214e+00	2.17000e+02
730	2.17631e+02	7.30000e+02	1.93869e+00	2.20000e+02
733	2.20659e+02	7.33000e+02	1.93584e+00	2.23000e+02
736	2.23690e+02	7.36000e+02	1.93348e+00	2.26000e+02
739	2.26711e+02	7.39000e+02	1.93148e+00	2.29000e+02
742	2.29729e+02	7.42000e+02	1.92987e+00	2.32000e+02
745	2.32764e+02	7.45000e+02	1.92834e+00	2.35000e+02
748	2.35814e+02	7.48000e+02	1.92684e+00	2.38000e+02
751	2.38893e+02	7.51000e+02	1.92531e+00	2.41000e+02
754	2.41937e+02	7.54000e+02	1.92375e+00	2.44000e+02
757	2.44982e+02	7.57000e+02	1.92216e+00	2.47000e+02
760	2.48044e+02	7.60000e+02	1.92055e+00	2.50000e+02
763	2.51107e+02	7.63000e+02	1.91894e+00	2.53000e+02
766	2.54177e+02	7.66000e+02	1.91735e+00	2.56000e+02
769	2.57229e+02	7.69000e+02	1.91579e+00	2.59000e+02
772	2.60261e+02	7.72000e+02	1.91433e+00	2.62000e+02
775	2.63295e+02	7.75000e+02	1.91293e+00	2.65000e+02
778	2.66336e+02	7.78000e+02	1.91160e+00	2.68000e+02
781	2.69370e+02	7.81000e+02	1.91033e+00	2.71000e+02
784	2.72408e+02	7.84000e+02	1.90910e+00	2.74000e+02
787	2.75453e+02	7.87000e+02	1.90790e+00	2.77000e+02
790	2.78487e+02	7.90000e+02	1.90670e+00	2.80000e+02
793	2.81509e+02	7.93000e+02	1.90545e+00	2.83000e+02
796	2.84559e+02	7.96000e+02	1.90405e+00	2.86000e+02
799	2.87592e+02	7.99000e+02	1.90247e+00	2.89000e+02
802	2.90639e+02	8.02000e+02	1.90054e+00	2.92000e+02
805	2.93700e+02	8.05000e+02	1.89826e+00	2.95000e+02
808	2.96728e+02	8.08000e+02	1.89556e+00	2.98000e+02
811	2.99771e+02	8.11000e+02	1.89241e+00	3.01000e+02
814	3.02808e+02	8.14000e+02	1.88852e+00	3.04000e+02
817	3.05847e+02	8.17000e+02	1.88398e+00	3.07000e+02
820	3.08889e+02	8.20000e+02	1.87874e+00	3.10000e+02
823	3.11911e+02	8.23000e+02	1.87285e+00	3.13000e+02
826	3.14948e+02	8.26000e+02	1.86600e+00	3.16000e+02
829	3.17974e+02	8.29000e+02	1.85855e+00	3.19000e+02
832	3.21006e+02	8.32000e+02	1.85065e+00	3.22000e+02
835	3.24011e+02	8.35000e+02	1.84241e+00	3.25000e+02
838	3.27033e+02	8.38000e+02	1.83375e+00	3.28000e+02
841	3.30047e+02	8.41000e+02	1.82488e+00	3.31000e+02
844	3.33075e+02	8.44000e+02	1.81572e+00	3.34000e+02
847	3.36086e+02	8.47000e+02	1.80611e+00	3.37000e+02
850	3.39101e+02	8.50000e+02	1.79550e+00	3.40000e+02
853	3.42116e+02	8.53000e+02	1.78353e+00	3.43000e+02
856	3.45104e+02	8.56000e+02	1.76962e+00	3.46000e+02
859	3.48102e+02	8.59000e+02	1.75360e+00	3.49000e+02
862	3.51100e+02	8.62000e+02	1.73393e+00	3.52000e+02
865	3.54075e+02	8.65000e+02	1.71071e+00	3.55000e+02
868	3.57064e+02	8.68000e+02	1.68343e+00	3.58000e+02
871	3.60108e+02	8.71000e+02	1.65225e+00	3.61000e+02
874	3.63211e+02	8.74000e+02	1.61486e+00	3.64000e+02
877	3.66186e+02	8.77000e+02	1.57221e+00	3.67000e+02
880	3.69156e+02	8.80000e+02	1.52417e+00	3.70000e+02
883	3.72104e+02	8.83000e+02	1.47128e+00	3.73000e+02
886	3.75067e+02	8.86000e+02	1.41143e+00	3.76000e+02
889	3.78006e+02	8.89000e+02	1.34649e+00	3.79000e+02
892	3.80946e+02	8.92000e+02	1.27655e+00	3.82000e+02
895	3.83904e+02	8.95000e+02	1.20251e+00	3.85000e+02
898	3.86854e+02	8.98000e+02	1.12283e+00	3.88000e+02
901	3.89832e+02	9.01000e+02	1.03932e+00	3.91000e+02
904	3.92802e+02	9.04000e+02	9.52576e-01	3.94000e+02
907	3.95766e+02	9.07000e+02	8.64077e-01	3.97000e+02
910	3.98729e+02	9.10000e+02	7.74604e-01	4.00000e+02
913	4.01720e+02	9.13000e+02	6.86611e-01	4.03000e+02
916	4.04740e+02	9.16000e+02	6.01169e-01	4.06000e+02
919	4.07815e+02	9.19000e+02	5.18725e-01	4.09000e+02
922	4.10961e+02	9.22000e+02	4.42046e-01	4.12000e+02
925	4.14038e+02	9.25000e+02	3.70573e-01	4.15000e+02
928	4.17106e+02	9.28000e+02	3.06520e-01	4.18000e+02
931	4.20247e+02	9.31000e+02	2.49880e-01	4.21000e+02
934	4.23366e+02	9.34000e+02	2.03024e-01	4.24000e+02
937	4.26597e+02	9.37000e+02	1.63877e-01	4.27000e+02
940	4.29741e+02	9.40000e+02	1.31240e-01	4.30000e+02
943	4.32902e+02	9.43000e+02	1.03635e-01	4.33000e+02
946	4.35951e+02	9.46000e+02	8.30600e-02	4.36000e+02
949	4.38949e+02	9.49000e+02	6.70925e-02	4.39000e+02
952	4.41960e+02	9.52000e+02	5.49893e-02	4.42000e+02
955	4.45023e+02	9.55000e+02	4.56522e-02	4.45000e+02
958	4.48012e+02	9.58000e+02	3.95785e-02	4.48000e+02
961	4.50941e+02	9.61000e+02	3.51014e-02	4.51000e+02
964	4.53919e+02	9.64000e+02	3.18572e-02	4.54000e+02
967	4.56863e+02	9.67000e+02	2.94304e-02	4.57000e+02
970	4.59818e+02	9.70000e+02	2.79115e-02	4.60000e+02
973	4.62815e+02	9.73000e+02	2.68119e-02	4.63000e+02
976	4.65858e+02	9.76000e+02	2.60722e-02	4.66000e+02
979	4.68781e+02	9.79000e+02	2.55570e-02	4.69000e+02
982	4.71694e+02	9.82000e+02	2.52704e-02	4.72000e+02
985	4.74693e+02	9.85000e+02	2.50524e-02	4.75000e+02
988	4.77651e+02	9.88000e+02	2.48779e-02	4.78000e+02
991	4.80508e+02	9.91000e+02	2.47198e-02	4.81000e+02
994	4.83427e+02	9.94000e+02	2.45893e-02	4.84000e+02
997	4.86316e+02	9.97000e+02	2.44832e-02	4.87000e+02
1000	4.89166e+02	1.00000e+03	2.43602e-02	4.90000e+02
1003	4.92066e+02	1.00300e+03	2.42485e-02	4.93000e+02
1006	4.94993e+02	1.00600e+03	2.41704e-02	4.96000e+02
1009	4.97936e+02	1.00900e+03	2.41228e-02	4.99000e+02
1012	5.00873e+02	1.01200e+03	2.40721e-02	5.02000e+02
1015	5.03776e+02	1.01500e+03	2.40110e-02	5.05000e+02
1018	5.06696e+02	1.01800e+03	2.39548e-02	5.08000e+02
1021	5.09628e+02	1.02100e+03	2.39467e-02	5.11000e+02
1024	5.12577e+02	1.02400e+03	2.39640e-02	5.14000e+02
1027	5.15512e+02	1.02700e+03	2.39532e-02	5.17000e+02
1030	5.18452e+02	1.03000e+03	2.38948e-02	5.20000e+02
1033	5.21357e+02	1.03300e+03	2.38361e-02	5.23000e+02
1036	5.24296e+02	1.03600e+03	2.37820e-02	5.26000e+02
1039	5.27220e+02	1.03900e+03	2.37234e-02	5.29000e+02
1042	5.30169e+02	1.04200e+03	2.36510e-02	5.32000e+02
1045	5.33127e+02	1.04500e+03	2.35739e-02	5.35000e+02
1048	5.36089e+02	1.04800e+03	2.35204e-02	5.38000e+02
1051	5.39014e+02	1.05100e+03	2.34707e-02	5.41000e+02
1054	5.42001e+02	1.05400e+03	2.34107e-02	5.44000e+02
1057	5.44927e+02	1.05700e+03	2.33453e-02	5.47000e+02
1060	5.47866e+02	1.06000e+03	2.32909e-02	5.50000e+02
1063	5.50806e+02	1.06300e+03	2.32535e-02	5.53000e+02
1066	5.53718e+02	1.06600e+03	2.32765e-02	5.56000e+02
1069	5.56614e+02	1.06900e+03	2.33208e-02	5.59000e+02
1072	5.59488e+02	1.07200e+03	2.33013e-02	5.62000e+02
1075	5.62439e+02	1.07500e+03	2.32594e-02	5.65000e+02
1078	5.65407e+02	1.07800e+03	2.31921e-02	5.68000e+02
1081	5.68309e+02	1.08100e+03	2.31210e-02	5.71000e+02
1084	5.71286e+02	1.08400e+03	2.30670e-02	5.74000e+02
1087	5.74296e+02	1.08700e+03	2.30037e-02	5.77000e+02
1090	5.77273e+02	1.09000e+03	2.29366e-02	5.80000e+02
1093	5.80228e+02	1.09300e+03	2.28961e-02	5.83000e+02
1096	5.83165e+02	1.09600e+03	2.28894e-02	5.86000e+02
1099	5.86114e+02	1.09900e+03	2.28811e-02	5.89000e+02
1102	5.89046e+02	1.10200e+03	2.28477e-02	5.92000e+02
1105	5.91961e+02	1.10500e+03	2.28056e-02	5.95000e+02
1108	5.94836e+02	1.10800e+03	2.27669e-02	5.98000e+02
1111	5.97719e+02	1.11100e+03	2.27354e-02	6.01000e+02
1114	6.00627e+02	1.11400e+03	2.27179e-02	6.04000e+02
1117	6.03510e+02	1.11700e+03	2.26941e-02	6.07000e+02
1120	6.06465e+02	1.12000e+03	2.26172e-02	6.10000e+02
1123	6.09379e+02	1.12300e+03	2.25011e-02	6.13000e+02
1126	6.12313e+02	1.12600e+03	2.23847e-02	6.16000e+02
1129	6.15302e+02	1.12900e+03	2.23491e-02	6.19000e+02
1132	6.18262e+02	1.13200e+03	2.23992e-02	6.22000e+02
1135	6.21315e+02	1.13500e+03	2.24824e-02	6.25000e+02
1138	6.24357e+02	1.13800e+03	2.25600e-02	6.28000e+02
1141	6.27465e+02	1.14100e+03	2.25834e-02	6.31000e+02
1144	6.30594e+02	1.14400e+03	2.25914e-02	6.34000e+02
1147	6.33579e+02	1.14700e+03	2.26071e-02	6.37000e+02
1150	6.36632e+02	1.15000e+03	2.26114e-02	6.40000e+02
1153	6.39720e+02	1.15300e+03	2.25766e-02	6.43000e+02
1156	6.42794e+02	1.15600e+03	2.25412e-02	6.46000e+02
1159	6.45768e+02	1.15900e+03	2.25357e-02	6.49000e+02
1162	6.48756e+02	1.16200e+03	2.25711e-02	6.52000e+02
1165	6.51695e+02	1.16500e+03	2.26103e-02	6.55000e+02
1168	6.54590e+02	1.16800e+03	2.26482e-02	6.58000e+02
1171	6.57476e+02	1.17100e+03	2.26865e-02	6.61000e+02
1174	6.60453e+02	1.17400e+03	2.27303e-02	6.64000e+02
1177	6.63431e+02	1.17700e+03	2.27665e-02	6.67000e+02
1180	6.66386e+02	1.18000e+03	2.27621e-02	6.70000e+02
1183	6.69334e+02	1.18300e+03	2.27254e-02	6.73000e+02
1186	6.71087e+02	1.18600e+03	2.27014e-02	6.76000e+02
1189	6.73084e+02	1.18900e+03	2.27697e-02	6.79000e+02
1192	6.75121e+02	1.19200e+03	2.27959e-02	6.82000e+02
1195	6.76945e+02	1.19500e+03	2.27385e-02	6.85000e+02
1198	6.78631e+02	1.19800e+03	2.26018e-02	6.88000e+02
1201	6.80152e+02	1.20100e+03	2.25382e-02	6.91000e+02
1204	6.81530e+02	1.20400e+03	2.25723e-02	6.94000e+02
1207	6.82792e+02	1.20700e+03	2.26283e-02	6.97000e+02
1210	6.83956e+02	1.21000e+03	2.26717e-02	7.00000e+02