File: Experiments/TGA/TUBS/tga_nonisotherm/tga_dynamic_n2_dyn60_piece_1mg_r1.txt
index	ts	t	weight	tr
[#]	[°C]	[s]	[mg]	[°C]
643	1.30198e+02	6.43000e+02	1.04751e+00	1.33000e+02
646	1.33234e+02	6.46000e+02	1.04744e+00	1.36000e+02
649	1.36239e+02	6.49000e+02	1.04745e+00	1.39000e+02
652	1.39252e+02	6.52000e+02	1.04753e+00	1.42000e+02
655	1.42249e+02	6.55000e+02	1.04764e+00	1.45000e+02
658	1.45256e+02	6.58000e+02	1.04773e+00	1.48000e+02
661	1.48261e+02	6.61000e+02	1.04782e+00	1.51000e+02
664	1.51270e+02	6.64000e+02	1.04786e+00	1.54000e+02
667	1.54273e+02	6.67000e+02	1.04782e+00	1.57000e+02
670	1.57267e+02	6.70000e+02	1.04765e+00	1.60000e+02
673	1.60253e+02	6.73000e+02	1.04748e+00	1.63000e+02
676	1.63252e+02	6.76000e+02	1.04733e+00	1.66000e+02
679	1.66236e+02	6.79000e+02	1.04727e+00	1.69000e+02
682	1.69231e+02	6.82000e+02	1.04729e+00	1.72000e+02
685	1.72220e+02	6.85000e+02	1.04727e+00	1.75000e+02
688	1.75201e+02	6.88000e+02	1.04717e+00	1.78000e+02
691	1.78195e+02	6.91000e+02	1.04705e+00	1.81000e+02
694	1.81184e+02	6.94000e+02	1.04698e+00	1.84000e+02
697	1.84174e+02	6.97000e+02	1.04699e+00	1.87000e+02
700	1.87173e+02	7.00000e+02	1.04697e+00	1.90000e+02
703	1.90163e+02	7.03000e+02	1.04686e+00	1.93000e+02
706	1.93153e+02	7.06000e+02	1.04665e+00	1.96000e+02
709	1.96146e+02	7.09000e+02	1.04638e+00	1.99000e+02
712	1.99144e+02	7.12000e+02	1.04605e+00	2.02000e+02
715	2.02147e+02	7.15000e+02	1.04567e+00	2.05000e+02
718	2.05143e+02	7.18000e+02	1.04521e+00	2.08000e+02
721	2.08137e+02	7.21000e+02	1.04469e+00	2.11000e+02
724	2.11135e+02	7.24000e+02	1.04410e+00	2.14000e+02
727	2.14136e+02	7.27000e+02	1.04345e+00	2.17000e+02
730	2.17160e+02	7.30000e+02	1.04276e+00	2.20000e+02
733	2.20147e+02	7.33000e+02	1.04207e+00	2.23000e+02
736	2.23144e+02	7.36000e+02	1.04134e+00	2.26000e+02
739	2.26137e+02	7.39000e+02	1.04056e+00	2.29000e+02
742	2.29127e+02	7.42000e+02	1.03976e+00	2.32000e+02
745	2.32117e+02	7.45000e+02	1.03896e+00	2.35000e+02
748	2.35119e+02	7.48000e+02	1.03815e+00	2.38000e+02
751	2.38104e+02	7.51000e+02	1.03731e+00	2.41000e+02
754	2.41128e+02	7.54000e+02	1.03649e+00	2.44000e+02
757	2.44099e+02	7.57000e+02	1.03565e+00	2.47000e+02
760	2.47070e+02	7.60000e+02	1.03472e+00	2.50000e+02
763	2.50071e+02	7.63000e+02	1.03377e+00	2.53000e+02
766	2.53063e+02	7.66000e+02	1.03282e+00	2.56000e+02
769	2.56081e+02	7.69000e+02	1.03188e+00	2.59000e+02
772	2.59098e+02	7.72000e+02	1.03094e+00	2.62000e+02
775	2.62123e+02	7.75000e+02	1.03001e+00	2.65000e+02
778	2.65136e+02	7.78000e+02	1.02906e+00	2.68000e+02
781	2.68139e+02	7.81000e+02	1.02807e+00	2.71000e+02
784	2.71169e+02	7.84000e+02	1.02707e+00	2.74000e+02
787	2.74203e+02	7.87000e+02	1.02604e+00	2.77000e+02
790	2.77225e+02	7.90000e+02	1.02497e+00	2.80000e+02
793	2.80266e+02	7.93000e+02	1.02387e+00	2.83000e+02
796	2.83317e+02	7.96000e+02	1.02278e+00	2.86000e+02
799	2.86363e+02	7.99000e+02	1.02165e+00	2.89000e+02
802	2.89368e+02	8.02000e+02	1.02044e+00	2.92000e+02
805	2.92418e+02	8.05000e+02	1.01914e+00	2.95000e+02
808	2.95461e+02	8.08000e+02	1.01778e+00	2.98000e+02
811	2.98524e+02	8.11000e+02	1.01637e+00	3.01000e+02
814	3.01594e+02	8.14000e+02	1.01484e+00	3.04000e+02
817	3.04687e+02	8.17000e+02	1.01317e+00	3.07000e+02
820	3.07756e+02	8.20000e+02	1.01133e+00	3.10000e+02
823	3.10847e+02	8.23000e+02	1.00929e+00	3.13000e+02
826	3.13866e+02	8.26000e+02	1.00692e+00	3.16000e+02
829	3.16969e+02	8.29000e+02	1.00426e+00	3.19000e+02
832	3.19898e+02	8.32000e+02	1.00138e+00	3.22000e+02
835	3.22837e+02	8.35000e+02	9.98366e-01	3.25000e+02
838	3.25832e+02	8.38000e+02	9.95151e-01	3.28000e+02
841	3.28808e+02	8.41000e+02	9.91780e-01	3.31000e+02
844	3.31787e+02	8.44000e+02	9.88301e-01	3.34000e+02
847	3.34775e+02	8.47000e+02	9.84726e-01	3.37000e+02
850	3.37765e+02	8.50000e+02	9.80943e-01	3.40000e+02
853	3.40745e+02	8.53000e+02	9.76857e-01	3.43000e+02
856	3.43753e+02	8.56000e+02	9.72380e-01	3.46000e+02
859	3.46754e+02	8.59000e+02	9.67462e-01	3.49000e+02
862	3.49783e+02	8.62000e+02	9.61710e-01	3.52000e+02
865	3.52787e+02	8.65000e+02	9.54998e-01	3.55000e+02
868	3.55782e+02	8.68000e+02	9.47069e-01	3.58000e+02
871	3.58797e+02	8.71000e+02	9.37777e-01	3.61000e+02
874	3.61783e+02	8.74000e+02	9.25978e-01	3.64000e+02
877	3.64762e+02	8.77000e+02	9.11593e-01	3.67000e+02
880	3.67740e+02	8.80000e+02	8.94193e-01	3.70000e+02
883	3.70735e+02	8.83000e+02	8.73689e-01	3.73000e+02
886	3.73730e+02	8.86000e+02	8.48373e-01	3.76000e+02
889	3.76691e+02	8.89000e+02	8.19242e-01	3.79000e+02
892	3.79674e+02	8.92000e+02	7.86212e-01	3.82000e+02
895	3.82627e+02	8.95000e+02	7.49733e-01	3.85000e+02
898	3.85562e+02	8.98000e+02	7.08437e-01	3.88000e+02
901	3.88528e+02	9.01000e+02	6.64058e-01	3.91000e+02
904	3.91509e+02	9.04000e+02	6.17201e-01	3.94000e+02
907	3.94514e+02	9.07000e+02	5.68619e-01	3.97000e+02
910	3.97530e+02	9.10000e+02	5.18070e-01	4.00000e+02
913	4.00541e+02	9.13000e+02	4.66721e-01	4.03000e+02
916	4.03550e+02	9.16000e+02	4.14899e-01	4.06000e+02
919	4.06583e+02	9.19000e+02	3.62992e-01	4.09000e+02
922	4.09660e+02	9.22000e+02	3.11729e-01	4.12000e+02
925	4.12738e+02	9.25000e+02	2.62253e-01	4.15000e+02
928	4.15768e+02	9.28000e+02	2.15760e-01	4.18000e+02
931	4.18842e+02	9.31000e+02	1.73018e-01	4.21000e+02
934	4.21911e+02	9.34000e+02	1.36828e-01	4.24000e+02
937	4.24938e+02	9.37000e+02	1.06451e-01	4.27000e+02
940	4.28056e+02	9.40000e+02	8.15825e-02	4.30000e+02
943	4.31265e+02	9.43000e+02	6.10962e-02	4.33000e+02
946	4.34389e+02	9.46000e+02	4.64214e-02	4.36000e+02
949	4.37570e+02	9.49000e+02	3.53068e-02	4.39000e+02
952	4.40535e+02	9.52000e+02	2.70269e-02	4.42000e+02
955	4.43506e+02	9.55000e+02	2.06629e-02	4.45000e+02
958	4.46501e+02	9.58000e+02	1.64980e-02	4.48000e+02
961	4.49472e+02	9.61000e+02	1.34022e-02	4.51000e+02
964	4.52402e+02	9.64000e+02	1.11362e-02	4.54000e+02
967	4.55308e+02	9.67000e+02	9.46173e-03	4.57000e+02
970	4.58197e+02	9.70000e+02	8.38485e-03	4.60000e+02
973	4.61165e+02	9.73000e+02	7.46794e-03	4.63000e+02
976	4.64069e+02	9.76000e+02	6.74600e-03	4.66000e+02
979	4.67063e+02	9.79000e+02	6.22967e-03	4.69000e+02
982	4.69999e+02	9.82000e+02	5.95992e-03	4.72000e+02
985	4.72951e+02	9.85000e+02	5.76294e-03	4.75000e+02
988	4.75900e+02	9.88000e+02	5.57486e-03	4.78000e+02
991	4.78845e+02	9.91000e+02	5.35207e-03	4.81000e+02
994	4.81793e+02	9.94000e+02	5.10129e-03	4.84000e+02
997	4.84736e+02	9.97000e+02	4.92461e-03	4.87000e+02
1000	4.87741e+02	1.00000e+03	4.85433e-03	4.90000e+02
1003	4.90709e+02	1.00300e+03	4.86033e-03	4.93000e+02
1006	4.93686e+02	1.00600e+03	4.91462e-03	4.96000e+02
1009	4.96676e+02	1.00900e+03	4.91775e-03	4.99000e+02
1012	4.99585e+02	1.01200e+03	4.85132e-03	5.02000e+02
1015	5.02505e+02	1.01500e+03	4.75588e-03	5.05000e+02
1018	5.05467e+02	1.01800e+03	4.66113e-03	5.08000e+02
1021	5.08411e+02	1.02100e+03	4.61766e-03	5.11000e+02
1024	5.11325e+02	1.02400e+03	4.61556e-03	5.14000e+02
1027	5.14242e+02	1.02700e+03	4.60921e-03	5.17000e+02
1030	5.17187e+02	1.03000e+03	4.57924e-03	5.20000e+02
1033	5.20149e+02	1.03300e+03	4.52934e-03	5.23000e+02
1036	5.23090e+02	1.03600e+03	4.45891e-03	5.26000e+02
1039	5.26007e+02	1.03900e+03	4.37247e-03	5.29000e+02
1042	5.28914e+02	1.04200e+03	4.25458e-03	5.32000e+02
1045	5.31816e+02	1.04500e+03	4.15783e-03	5.35000e+02
1048	5.34728e+02	1.04800e+03	4.13778e-03	5.38000e+02
1051	5.37655e+02	1.05100e+03	4.13882e-03	5.41000e+02
1054	5.40573e+02	1.05400e+03	4.12638e-03	5.44000e+02
1057	5.43521e+02	1.05700e+03	4.07015e-03	5.47000e+02
1060	5.46404e+02	1.06000e+03	4.03713e-03	5.50000e+02
1063	5.49295e+02	1.06300e+03	4.05804e-03	5.53000e+02
1066	5.52194e+02	1.06600e+03	4.12393e-03	5.56000e+02
1069	5.55095e+02	1.06900e+03	4.12880e-03	5.59000e+02
1072	5.58024e+02	1.07200e+03	4.08157e-03	5.62000e+02
1075	5.60963e+02	1.07500e+03	4.02753e-03	5.65000e+02
1078	5.63911e+02	1.07800e+03	3.98534e-03	5.68000e+02
1081	5.66866e+02	1.08100e+03	3.95754e-03	5.71000e+02
1084	5.69804e+02	1.08400e+03	3.92447e-03	5.74000e+02
1087	5.72739e+02	1.08700e+03	3.87856e-03	5.77000e+02
1090	5.75704e+02	1.09000e+03	3.83218e-03	5.80000e+02
1093	5.78654e+02	1.09300e+03	3.83021e-03	5.83000e+02
1096	5.81663e+02	1.09600e+03	3.84645e-03	5.86000e+02
1099	5.84634e+02	1.09900e+03	3.86073e-03	5.89000e+02
1102	5.87604e+02	1.10200e+03	3.86206e-03	5.92000e+02
1105	5.90555e+02	1.10500e+03	3.86440e-03	5.95000e+02
1108	5.93527e+02	1.10800e+03	3.87298e-03	5.98000e+02
1111	5.96464e+02	1.11100e+03	3.87495e-03	6.01000e+02
1114	5.99412e+02	1.11400e+03	3.86177e-03	6.04000e+02
1117	6.02351e+02	1.11700e+03	3.82048e-03	6.07000e+02
1120	6.05280e+02	1.12000e+03	3.75039e-03	6.10000e+02
1123	6.08177e+02	1.12300e+03	3.71243e-03	6.13000e+02
1126	6.11086e+02	1.12600e+03	3.72861e-03	6.16000e+02
1129	6.13994e+02	1.12900e+03	3.74548e-03	6.19000e+02
1132	6.16911e+02	1.13200e+03	3.74824e-03	6.22000e+02
1135	6.19901e+02	1.13500e+03	3.74737e-03	6.25000e+02
1138	6.22938e+02	1.13800e+03	3.75027e-03	6.28000e+02
1141	6.25979e+02	1.14100e+03	3.75407e-03	6.31000e+02
1144	6.28966e+02	1.14400e+03	3.74225e-03	6.34000e+02
1147	6.31977e+02	1.14700e+03	3.69687e-03	6.37000e+02
1150	6.34892e+02	1.15000e+03	3.61954e-03	6.40000e+02
1153	6.37802e+02	1.15300e+03	3.58949e-03	6.43000e+02
1156	6.40735e+02	1.15600e+03	3.63884e-03	6.46000e+02
1159	6.43721e+02	1.15900e+03	3.70261e-03	6.49000e+02
1162	6.46677e+02	1.16200e+03	3.77046e-03	6.52000e+02
1165	6.49687e+02	1.16500e+03	3.82613e-03	6.55000e+02
1168	6.52682e+02	1.16800e+03	3.82737e-03	6.58000e+02
1171	6.55741e+02	1.17100e+03	3.78806e-03	6.61000e+02
1174	6.58713e+02	1.17400e+03	3.73199e-03	6.64000e+02
1177	6.61681e+02	1.17700e+03	3.70527e-03	6.67000e+02
1180	6.64663e+02	1.18000e+03	3.67343e-03	6.70000e+02
1183	6.67654e+02	1.18300e+03	3.66602e-03	6.73000e+02
1186	6.69477e+02	1.18600e+03	3.73648e-03	6.76000e+02
1189	6.71623e+02	1.18900e+03	3.86083e-03	6.79000e+02
1192	6.73764e+02	1.19200e+03	3.91706e-03	6.82000e+02
1195	6.75706e+02	1.19500e+03	3.90976e-03	6.85000e+02
1198	6.77451e+02	1.19800e+03	3.82536e-03	6.88000e+02
1201	6.79114e+02	1.20100e+03	3.73699e-03	6.91000e+02
1204	6.80607e+02	1.20400e+03	3.67004e-03	6.94000e+02
1207	6.81979e+02	1.20700e+03	3.59982e-03	6.97000e+02
1210	6.83249e+02	1.21000e+03	3.51553e-03	7.00000e+02