File: Experiments/TGA/TUBS/tga_nonisotherm/tga_dynamic_n2_dyn60_powder_6mg_r3.txt
index	ts	t	weight	tr
[#]	[°C]	[s]	[mg]	[°C]
643	1.30860e+02	6.43000e+02	6.09419e+00	1.33000e+02
646	1.33926e+02	6.46000e+02	6.09398e+00	1.36000e+02
649	1.37010e+02	6.49000e+02	6.09373e+00	1.39000e+02
652	1.40081e+02	6.52000e+02	6.09341e+00	1.42000e+02
655	1.43134e+02	6.55000e+02	6.09297e+00	1.45000e+02
658	1.46201e+02	6.58000e+02	6.09224e+00	1.48000e+02
661	1.49268e+02	6.61000e+02	6.09119e+00	1.51000e+02
664	1.52328e+02	6.64000e+02	6.08983e+00	1.54000e+02
667	1.55377e+02	6.67000e+02	6.08820e+00	1.57000e+02
670	1.58432e+02	6.70000e+02	6.08624e+00	1.60000e+02
673	1.61473e+02	6.73000e+02	6.08408e+00	1.63000e+02
676	1.64501e+02	6.76000e+02	6.08168e+00	1.66000e+02
679	1.67554e+02	6.79000e+02	6.07905e+00	1.69000e+02
682	1.70591e+02	6.82000e+02	6.07598e+00	1.72000e+02
685	1.73605e+02	6.85000e+02	6.07244e+00	1.75000e+02
688	1.76646e+02	6.88000e+02	6.06825e+00	1.78000e+02
691	1.79684e+02	6.91000e+02	6.06330e+00	1.81000e+02
694	1.82720e+02	6.94000e+02	6.05699e+00	1.84000e+02
697	1.85739e+02	6.97000e+02	6.04927e+00	1.87000e+02
700	1.88754e+02	7.00000e+02	6.03987e+00	1.90000e+02
703	1.91768e+02	7.03000e+02	6.02889e+00	1.93000e+02
706	1.94775e+02	7.06000e+02	6.01555e+00	1.96000e+02
709	1.97780e+02	7.09000e+02	6.00049e+00	1.99000e+02
712	2.00803e+02	7.12000e+02	5.98404e+00	2.02000e+02
715	2.03803e+02	7.15000e+02	5.96675e+00	2.05000e+02
718	2.06937e+02	7.18000e+02	5.94887e+00	2.08000e+02
721	2.10018e+02	7.21000e+02	5.93151e+00	2.11000e+02
724	2.13056e+02	7.24000e+02	5.91538e+00	2.14000e+02
727	2.16093e+02	7.27000e+02	5.90082e+00	2.17000e+02
730	2.19137e+02	7.30000e+02	5.88891e+00	2.20000e+02
733	2.22181e+02	7.33000e+02	5.87919e+00	2.23000e+02
736	2.25227e+02	7.36000e+02	5.87132e+00	2.26000e+02
739	2.28282e+02	7.39000e+02	5.86468e+00	2.29000e+02
742	2.31315e+02	7.42000e+02	5.85938e+00	2.32000e+02
745	2.34356e+02	7.45000e+02	5.85454e+00	2.35000e+02
748	2.37494e+02	7.48000e+02	5.84994e+00	2.38000e+02
751	2.40489e+02	7.51000e+02	5.84544e+00	2.41000e+02
754	2.43546e+02	7.54000e+02	5.84095e+00	2.44000e+02
757	2.46638e+02	7.57000e+02	5.83640e+00	2.47000e+02
760	2.49699e+02	7.60000e+02	5.83182e+00	2.50000e+02
763	2.52770e+02	7.63000e+02	5.82727e+00	2.53000e+02
766	2.55895e+02	7.66000e+02	5.82281e+00	2.56000e+02
769	2.59005e+02	7.69000e+02	5.81849e+00	2.59000e+02
772	2.62194e+02	7.72000e+02	5.81434e+00	2.62000e+02
775	2.65275e+02	7.75000e+02	5.81030e+00	2.65000e+02
778	2.68308e+02	7.78000e+02	5.80638e+00	2.68000e+02
781	2.71320e+02	7.81000e+02	5.80249e+00	2.71000e+02
784	2.74327e+02	7.84000e+02	5.79854e+00	2.74000e+02
787	2.77359e+02	7.87000e+02	5.79448e+00	2.77000e+02
790	2.80401e+02	7.90000e+02	5.79013e+00	2.80000e+02
793	2.83510e+02	7.93000e+02	5.78542e+00	2.83000e+02
796	2.86646e+02	7.96000e+02	5.78016e+00	2.86000e+02
799	2.89750e+02	7.99000e+02	5.77424e+00	2.89000e+02
802	2.92733e+02	8.02000e+02	5.76710e+00	2.92000e+02
805	2.95746e+02	8.05000e+02	5.75871e+00	2.95000e+02
808	2.98788e+02	8.08000e+02	5.74886e+00	2.98000e+02
811	3.01813e+02	8.11000e+02	5.73754e+00	3.01000e+02
814	3.04804e+02	8.14000e+02	5.72386e+00	3.04000e+02
817	3.07800e+02	8.17000e+02	5.70819e+00	3.07000e+02
820	3.10800e+02	8.20000e+02	5.69050e+00	3.10000e+02
823	3.13862e+02	8.23000e+02	5.67113e+00	3.13000e+02
826	3.16960e+02	8.26000e+02	5.64945e+00	3.16000e+02
829	3.20072e+02	8.29000e+02	5.62633e+00	3.19000e+02
832	3.23126e+02	8.32000e+02	5.60207e+00	3.22000e+02
835	3.26205e+02	8.35000e+02	5.57691e+00	3.25000e+02
838	3.29195e+02	8.38000e+02	5.55047e+00	3.28000e+02
841	3.32238e+02	8.41000e+02	5.52282e+00	3.31000e+02
844	3.35197e+02	8.44000e+02	5.49327e+00	3.34000e+02
847	3.38265e+02	8.47000e+02	5.46134e+00	3.37000e+02
850	3.41369e+02	8.50000e+02	5.42467e+00	3.40000e+02
853	3.44517e+02	8.53000e+02	5.38279e+00	3.43000e+02
856	3.47540e+02	8.56000e+02	5.33504e+00	3.46000e+02
859	3.50598e+02	8.59000e+02	5.27903e+00	3.49000e+02
862	3.53613e+02	8.62000e+02	5.21157e+00	3.52000e+02
865	3.56371e+02	8.65000e+02	5.13431e+00	3.55000e+02
868	3.59221e+02	8.68000e+02	5.04412e+00	3.58000e+02
871	3.62082e+02	8.71000e+02	4.94229e+00	3.61000e+02
874	3.64938e+02	8.74000e+02	4.82658e+00	3.64000e+02
877	3.67818e+02	8.77000e+02	4.69655e+00	3.67000e+02
880	3.70667e+02	8.80000e+02	4.55171e+00	3.70000e+02
883	3.73481e+02	8.83000e+02	4.39544e+00	3.73000e+02
886	3.76335e+02	8.86000e+02	4.22533e+00	3.76000e+02
889	3.79162e+02	8.89000e+02	4.04432e+00	3.79000e+02
892	3.82115e+02	8.92000e+02	3.85362e+00	3.82000e+02
895	3.85100e+02	8.95000e+02	3.65437e+00	3.85000e+02
898	3.87936e+02	8.98000e+02	3.44360e+00	3.88000e+02
901	3.90837e+02	9.01000e+02	3.22388e+00	3.91000e+02
904	3.93825e+02	9.04000e+02	2.99734e+00	3.94000e+02
907	3.96645e+02	9.07000e+02	2.76840e+00	3.97000e+02
910	3.99830e+02	9.10000e+02	2.53707e+00	4.00000e+02
913	4.02596e+02	9.13000e+02	2.30497e+00	4.03000e+02
916	4.05641e+02	9.16000e+02	2.07138e+00	4.06000e+02
919	4.08480e+02	9.19000e+02	1.83617e+00	4.09000e+02
922	4.11488e+02	9.22000e+02	1.59938e+00	4.12000e+02
925	4.14586e+02	9.25000e+02	1.36478e+00	4.15000e+02
928	4.17717e+02	9.28000e+02	1.13568e+00	4.18000e+02
931	4.20830e+02	9.31000e+02	9.21123e-01	4.21000e+02
934	4.23874e+02	9.34000e+02	7.31008e-01	4.24000e+02
937	4.26908e+02	9.37000e+02	5.71363e-01	4.27000e+02
940	4.30025e+02	9.40000e+02	4.43237e-01	4.30000e+02
943	4.33104e+02	9.43000e+02	3.39102e-01	4.33000e+02
946	4.36269e+02	9.46000e+02	2.60193e-01	4.36000e+02
949	4.39332e+02	9.49000e+02	2.00201e-01	4.39000e+02
952	4.42363e+02	9.52000e+02	1.57549e-01	4.42000e+02
955	4.45707e+02	9.55000e+02	1.25189e-01	4.45000e+02
958	4.48978e+02	9.58000e+02	1.04062e-01	4.48000e+02
961	4.52357e+02	9.61000e+02	8.98459e-02	4.51000e+02
964	4.55301e+02	9.64000e+02	7.94406e-02	4.54000e+02
967	4.58287e+02	9.67000e+02	7.18201e-02	4.57000e+02
970	4.61329e+02	9.70000e+02	6.73924e-02	4.60000e+02
973	4.64297e+02	9.73000e+02	6.43613e-02	4.63000e+02
976	4.67354e+02	9.76000e+02	6.22902e-02	4.66000e+02
979	4.70311e+02	9.79000e+02	6.08266e-02	4.69000e+02
982	4.73344e+02	9.82000e+02	6.00065e-02	4.72000e+02
985	4.76215e+02	9.85000e+02	5.94724e-02	4.75000e+02
988	4.79549e+02	9.88000e+02	5.91421e-02	4.78000e+02
991	4.82715e+02	9.91000e+02	5.89185e-02	4.81000e+02
994	4.85844e+02	9.94000e+02	5.87663e-02	4.84000e+02
997	4.88480e+02	9.97000e+02	5.86173e-02	4.87000e+02
1000	4.91232e+02	1.00000e+03	5.84896e-02	4.90000e+02
1003	4.94039e+02	1.00300e+03	5.83791e-02	4.93000e+02
1006	4.97028e+02	1.00600e+03	5.83055e-02	4.96000e+02
1009	4.99910e+02	1.00900e+03	5.82573e-02	4.99000e+02
1012	5.02724e+02	1.01200e+03	5.81920e-02	5.02000e+02
1015	5.05533e+02	1.01500e+03	5.81256e-02	5.05000e+02
1018	5.08473e+02	1.01800e+03	5.80734e-02	5.08000e+02
1021	5.11462e+02	1.02100e+03	5.80478e-02	5.11000e+02
1024	5.14469e+02	1.02400e+03	5.80376e-02	5.14000e+02
1027	5.17430e+02	1.02700e+03	5.80117e-02	5.17000e+02
1030	5.20496e+02	1.03000e+03	5.79374e-02	5.20000e+02
1033	5.23468e+02	1.03300e+03	5.78552e-02	5.23000e+02
1036	5.26586e+02	1.03600e+03	5.78162e-02	5.26000e+02
1039	5.29610e+02	1.03900e+03	5.77813e-02	5.29000e+02
1042	5.32536e+02	1.04200e+03	5.77380e-02	5.32000e+02
1045	5.35374e+02	1.04500e+03	5.76927e-02	5.35000e+02
1048	5.38236e+02	1.04800e+03	5.76523e-02	5.38000e+02
1051	5.41221e+02	1.05100e+03	5.76137e-02	5.41000e+02
1054	5.44122e+02	1.05400e+03	5.75670e-02	5.44000e+02
1057	5.47089e+02	1.05700e+03	5.75090e-02	5.47000e+02
1060	5.50050e+02	1.06000e+03	5.74836e-02	5.50000e+02
1063	5.53036e+02	1.06300e+03	5.75189e-02	5.53000e+02
1066	5.55896e+02	1.06600e+03	5.76201e-02	5.56000e+02
1069	5.58708e+02	1.06900e+03	5.76918e-02	5.59000e+02
1072	5.61561e+02	1.07200e+03	5.77112e-02	5.62000e+02
1075	5.64398e+02	1.07500e+03	5.77129e-02	5.65000e+02
1078	5.67365e+02	1.07800e+03	5.77075e-02	5.68000e+02
1081	5.70386e+02	1.08100e+03	5.76846e-02	5.71000e+02
1084	5.73443e+02	1.08400e+03	5.76234e-02	5.74000e+02
1087	5.76586e+02	1.08700e+03	5.75599e-02	5.77000e+02
1090	5.79606e+02	1.09000e+03	5.74999e-02	5.80000e+02
1093	5.82503e+02	1.09300e+03	5.74566e-02	5.83000e+02
1096	5.85625e+02	1.09600e+03	5.74525e-02	5.86000e+02
1099	5.88733e+02	1.09900e+03	5.74707e-02	5.89000e+02
1102	5.91484e+02	1.10200e+03	5.74864e-02	5.92000e+02
1105	5.94179e+02	1.10500e+03	5.74760e-02	5.95000e+02
1108	5.97016e+02	1.10800e+03	5.74652e-02	5.98000e+02
1111	5.99907e+02	1.11100e+03	5.74457e-02	6.01000e+02
1114	6.02757e+02	1.11400e+03	5.74125e-02	6.04000e+02
1117	6.05642e+02	1.11700e+03	5.73861e-02	6.07000e+02
1120	6.08596e+02	1.12000e+03	5.73742e-02	6.10000e+02
1123	6.11590e+02	1.12300e+03	5.73534e-02	6.13000e+02
1126	6.14495e+02	1.12600e+03	5.73309e-02	6.16000e+02
1129	6.17385e+02	1.12900e+03	5.73200e-02	6.19000e+02
1132	6.20324e+02	1.13200e+03	5.73173e-02	6.22000e+02
1135	6.23850e+02	1.13500e+03	5.73358e-02	6.25000e+02
1138	6.28418e+02	1.13800e+03	5.73944e-02	6.28000e+02
1141	6.31015e+02	1.14100e+03	5.74406e-02	6.31000e+02
1144	6.33776e+02	1.14400e+03	5.74262e-02	6.34000e+02
1147	6.36613e+02	1.14700e+03	5.73886e-02	6.37000e+02
1150	6.39496e+02	1.15000e+03	5.73393e-02	6.40000e+02
1153	6.42412e+02	1.15300e+03	5.73014e-02	6.43000e+02
1156	6.45346e+02	1.15600e+03	5.72758e-02	6.46000e+02
1159	6.48247e+02	1.15900e+03	5.72552e-02	6.49000e+02
1162	6.51120e+02	1.16200e+03	5.72448e-02	6.52000e+02
1165	6.54034e+02	1.16500e+03	5.72356e-02	6.55000e+02
1168	6.56944e+02	1.16800e+03	5.72355e-02	6.58000e+02
1171	6.59890e+02	1.17100e+03	5.72563e-02	6.61000e+02
1174	6.62824e+02	1.17400e+03	5.72999e-02	6.64000e+02
1177	6.65773e+02	1.17700e+03	5.73348e-02	6.67000e+02
1180	6.68707e+02	1.18000e+03	5.73421e-02	6.70000e+02
1183	6.71638e+02	1.18300e+03	5.73187e-02	6.73000e+02
1186	6.73298e+02	1.18600e+03	5.73081e-02	6.76000e+02
1189	6.75278e+02	1.18900e+03	5.74214e-02	6.79000e+02
1192	6.77275e+02	1.19200e+03	5.75469e-02	6.82000e+02
1195	6.79098e+02	1.19500e+03	5.75832e-02	6.85000e+02
1198	6.80711e+02	1.19800e+03	5.75208e-02	6.88000e+02
1201	6.82220e+02	1.20100e+03	5.74900e-02	6.91000e+02
1204	6.83597e+02	1.20400e+03	5.74704e-02	6.94000e+02
1207	6.84882e+02	1.20700e+03	5.74539e-02	6.97000e+02
1210	6.86071e+02	1.21000e+03	5.74661e-02	7.00000e+02