File: Experiments/TGA/TUBS/tga_nonisotherm/tga_dynamic_n2_dyn60_powder_12mg_r2.txt
index	ts	t	weight	tr
[#]	[°C]	[s]	[mg]	[°C]
643	1.30646e+02	6.43000e+02	1.20568e+01	1.33000e+02
646	1.33711e+02	6.46000e+02	1.20565e+01	1.36000e+02
649	1.36790e+02	6.49000e+02	1.20561e+01	1.39000e+02
652	1.39838e+02	6.52000e+02	1.20556e+01	1.42000e+02
655	1.42903e+02	6.55000e+02	1.20549e+01	1.45000e+02
658	1.45961e+02	6.58000e+02	1.20538e+01	1.48000e+02
661	1.49018e+02	6.61000e+02	1.20524e+01	1.51000e+02
664	1.52073e+02	6.64000e+02	1.20505e+01	1.54000e+02
667	1.55120e+02	6.67000e+02	1.20481e+01	1.57000e+02
670	1.58183e+02	6.70000e+02	1.20450e+01	1.60000e+02
673	1.61224e+02	6.73000e+02	1.20412e+01	1.63000e+02
676	1.64281e+02	6.76000e+02	1.20370e+01	1.66000e+02
679	1.67310e+02	6.79000e+02	1.20323e+01	1.69000e+02
682	1.70348e+02	6.82000e+02	1.20270e+01	1.72000e+02
685	1.73400e+02	6.85000e+02	1.20210e+01	1.75000e+02
688	1.76430e+02	6.88000e+02	1.20140e+01	1.78000e+02
691	1.79474e+02	6.91000e+02	1.20058e+01	1.81000e+02
694	1.82504e+02	6.94000e+02	1.19957e+01	1.84000e+02
697	1.85527e+02	6.97000e+02	1.19834e+01	1.87000e+02
700	1.88561e+02	7.00000e+02	1.19685e+01	1.90000e+02
703	1.91605e+02	7.03000e+02	1.19509e+01	1.93000e+02
706	1.94622e+02	7.06000e+02	1.19289e+01	1.96000e+02
709	1.97642e+02	7.09000e+02	1.19031e+01	1.99000e+02
712	2.00675e+02	7.12000e+02	1.18738e+01	2.02000e+02
715	2.03700e+02	7.15000e+02	1.18418e+01	2.05000e+02
718	2.06742e+02	7.18000e+02	1.18064e+01	2.08000e+02
721	2.09791e+02	7.21000e+02	1.17700e+01	2.11000e+02
724	2.12834e+02	7.24000e+02	1.17337e+01	2.14000e+02
727	2.15902e+02	7.27000e+02	1.16986e+01	2.17000e+02
730	2.18978e+02	7.30000e+02	1.16668e+01	2.20000e+02
733	2.22033e+02	7.33000e+02	1.16392e+01	2.23000e+02
736	2.25094e+02	7.36000e+02	1.16161e+01	2.26000e+02
739	2.28159e+02	7.39000e+02	1.15966e+01	2.29000e+02
742	2.31211e+02	7.42000e+02	1.15819e+01	2.32000e+02
745	2.34279e+02	7.45000e+02	1.15696e+01	2.35000e+02
748	2.37346e+02	7.48000e+02	1.15588e+01	2.38000e+02
751	2.40406e+02	7.51000e+02	1.15488e+01	2.41000e+02
754	2.43436e+02	7.54000e+02	1.15394e+01	2.44000e+02
757	2.46487e+02	7.57000e+02	1.15299e+01	2.47000e+02
760	2.49512e+02	7.60000e+02	1.15204e+01	2.50000e+02
763	2.52489e+02	7.63000e+02	1.15110e+01	2.53000e+02
766	2.55501e+02	7.66000e+02	1.15017e+01	2.56000e+02
769	2.58543e+02	7.69000e+02	1.14927e+01	2.59000e+02
772	2.61594e+02	7.72000e+02	1.14840e+01	2.62000e+02
775	2.64591e+02	7.75000e+02	1.14757e+01	2.65000e+02
778	2.67614e+02	7.78000e+02	1.14677e+01	2.68000e+02
781	2.70628e+02	7.81000e+02	1.14600e+01	2.71000e+02
784	2.73647e+02	7.84000e+02	1.14523e+01	2.74000e+02
787	2.76696e+02	7.87000e+02	1.14446e+01	2.77000e+02
790	2.79740e+02	7.90000e+02	1.14366e+01	2.80000e+02
793	2.82769e+02	7.93000e+02	1.14281e+01	2.83000e+02
796	2.85794e+02	7.96000e+02	1.14189e+01	2.86000e+02
799	2.88795e+02	7.99000e+02	1.14086e+01	2.89000e+02
802	2.91813e+02	8.02000e+02	1.13966e+01	2.92000e+02
805	2.94863e+02	8.05000e+02	1.13826e+01	2.95000e+02
808	2.97959e+02	8.08000e+02	1.13663e+01	2.98000e+02
811	3.01052e+02	8.11000e+02	1.13478e+01	3.01000e+02
814	3.04114e+02	8.14000e+02	1.13254e+01	3.04000e+02
817	3.07163e+02	8.17000e+02	1.12995e+01	3.07000e+02
820	3.10192e+02	8.20000e+02	1.12700e+01	3.10000e+02
823	3.13261e+02	8.23000e+02	1.12374e+01	3.13000e+02
826	3.16355e+02	8.26000e+02	1.12001e+01	3.16000e+02
829	3.19422e+02	8.29000e+02	1.11594e+01	3.19000e+02
832	3.22490e+02	8.32000e+02	1.11158e+01	3.22000e+02
835	3.25564e+02	8.35000e+02	1.10698e+01	3.25000e+02
838	3.28646e+02	8.38000e+02	1.10209e+01	3.28000e+02
841	3.31698e+02	8.41000e+02	1.09698e+01	3.31000e+02
844	3.34714e+02	8.44000e+02	1.09161e+01	3.34000e+02
847	3.37741e+02	8.47000e+02	1.08593e+01	3.37000e+02
850	3.40767e+02	8.50000e+02	1.07975e+01	3.40000e+02
853	3.43799e+02	8.53000e+02	1.07280e+01	3.43000e+02
856	3.46828e+02	8.56000e+02	1.06488e+01	3.46000e+02
859	3.49855e+02	8.59000e+02	1.05576e+01	3.49000e+02
862	3.52884e+02	8.62000e+02	1.04517e+01	3.52000e+02
865	3.55861e+02	8.65000e+02	1.03269e+01	3.55000e+02
868	3.58832e+02	8.68000e+02	1.01827e+01	3.58000e+02
871	3.61764e+02	8.71000e+02	1.00187e+01	3.61000e+02
874	3.64693e+02	8.74000e+02	9.82942e+00	3.64000e+02
877	3.67610e+02	8.77000e+02	9.61753e+00	3.67000e+02
880	3.70539e+02	8.80000e+02	9.38066e+00	3.70000e+02
883	3.73465e+02	8.83000e+02	9.11766e+00	3.73000e+02
886	3.76336e+02	8.86000e+02	8.83031e+00	3.76000e+02
889	3.79162e+02	8.89000e+02	8.52157e+00	3.79000e+02
892	3.81975e+02	8.92000e+02	8.18952e+00	3.82000e+02
895	3.84812e+02	8.95000e+02	7.84076e+00	3.85000e+02
898	3.87693e+02	8.98000e+02	7.47792e+00	3.88000e+02
901	3.90605e+02	9.01000e+02	7.09911e+00	3.91000e+02
904	3.93444e+02	9.04000e+02	6.70545e+00	3.94000e+02
907	3.96340e+02	9.07000e+02	6.29935e+00	3.97000e+02
910	3.99233e+02	9.10000e+02	5.87863e+00	4.00000e+02
913	4.02198e+02	9.13000e+02	5.44766e+00	4.03000e+02
916	4.05116e+02	9.16000e+02	5.00205e+00	4.06000e+02
919	4.08026e+02	9.19000e+02	4.54693e+00	4.09000e+02
922	4.10960e+02	9.22000e+02	4.08519e+00	4.12000e+02
925	4.13935e+02	9.25000e+02	3.61601e+00	4.15000e+02
928	4.16981e+02	9.28000e+02	3.13783e+00	4.18000e+02
931	4.20193e+02	9.31000e+02	2.65625e+00	4.21000e+02
934	4.23494e+02	9.34000e+02	2.17373e+00	4.24000e+02
937	4.26942e+02	9.37000e+02	1.72050e+00	4.27000e+02
940	4.30457e+02	9.40000e+02	1.32384e+00	4.30000e+02
943	4.33862e+02	9.43000e+02	9.93632e-01	4.33000e+02
946	4.37227e+02	9.46000e+02	7.38141e-01	4.36000e+02
949	4.40540e+02	9.49000e+02	5.42293e-01	4.39000e+02
952	4.43967e+02	9.52000e+02	3.97784e-01	4.42000e+02
955	4.47247e+02	9.55000e+02	2.94139e-01	4.45000e+02
958	4.50733e+02	9.58000e+02	2.25949e-01	4.48000e+02
961	4.54010e+02	9.61000e+02	1.78519e-01	4.51000e+02
964	4.57178e+02	9.64000e+02	1.48323e-01	4.54000e+02
967	4.60191e+02	9.67000e+02	1.27780e-01	4.57000e+02
970	4.63181e+02	9.70000e+02	1.14567e-01	4.60000e+02
973	4.66244e+02	9.73000e+02	1.05913e-01	4.63000e+02
976	4.69249e+02	9.76000e+02	1.00097e-01	4.66000e+02
979	4.72266e+02	9.79000e+02	9.60721e-02	4.69000e+02
982	4.75402e+02	9.82000e+02	9.39654e-02	4.72000e+02
985	4.78596e+02	9.85000e+02	9.26968e-02	4.75000e+02
988	4.81525e+02	9.88000e+02	9.19755e-02	4.78000e+02
991	4.84330e+02	9.91000e+02	9.15028e-02	4.81000e+02
994	4.87160e+02	9.94000e+02	9.12107e-02	4.84000e+02
997	4.90038e+02	9.97000e+02	9.09453e-02	4.87000e+02
1000	4.93119e+02	1.00000e+03	9.07347e-02	4.90000e+02
1003	4.96080e+02	1.00300e+03	9.05748e-02	4.93000e+02
1006	4.99104e+02	1.00600e+03	9.04732e-02	4.96000e+02
1009	5.02154e+02	1.00900e+03	9.03772e-02	4.99000e+02
1012	5.05041e+02	1.01200e+03	9.02592e-02	5.02000e+02
1015	5.07791e+02	1.01500e+03	9.01186e-02	5.05000e+02
1018	5.10407e+02	1.01800e+03	8.99844e-02	5.08000e+02
1021	5.13123e+02	1.02100e+03	8.99044e-02	5.11000e+02
1024	5.15909e+02	1.02400e+03	8.98638e-02	5.14000e+02
1027	5.18640e+02	1.02700e+03	8.98397e-02	5.17000e+02
1030	5.21430e+02	1.03000e+03	8.98127e-02	5.20000e+02
1033	5.24328e+02	1.03300e+03	8.97394e-02	5.23000e+02
1036	5.27265e+02	1.03600e+03	8.96301e-02	5.26000e+02
1039	5.30257e+02	1.03900e+03	8.95234e-02	5.29000e+02
1042	5.33265e+02	1.04200e+03	8.94570e-02	5.32000e+02
1045	5.36189e+02	1.04500e+03	8.94348e-02	5.35000e+02
1048	5.39145e+02	1.04800e+03	8.94136e-02	5.38000e+02
1051	5.42174e+02	1.05100e+03	8.93559e-02	5.41000e+02
1054	5.45119e+02	1.05400e+03	8.92519e-02	5.44000e+02
1057	5.48016e+02	1.05700e+03	8.91500e-02	5.47000e+02
1060	5.50996e+02	1.06000e+03	8.90610e-02	5.50000e+02
1063	5.53865e+02	1.06300e+03	8.89925e-02	5.53000e+02
1066	5.56808e+02	1.06600e+03	8.89712e-02	5.56000e+02
1069	5.59761e+02	1.06900e+03	8.89970e-02	5.59000e+02
1072	5.63096e+02	1.07200e+03	8.90356e-02	5.62000e+02
1075	5.65927e+02	1.07500e+03	8.90349e-02	5.65000e+02
1078	5.68807e+02	1.07800e+03	8.89734e-02	5.68000e+02
1081	5.71670e+02	1.08100e+03	8.89180e-02	5.71000e+02
1084	5.74594e+02	1.08400e+03	8.88945e-02	5.74000e+02
1087	5.77577e+02	1.08700e+03	8.88612e-02	5.77000e+02
1090	5.80692e+02	1.09000e+03	8.88067e-02	5.80000e+02
1093	5.83857e+02	1.09300e+03	8.87721e-02	5.83000e+02
1096	5.87287e+02	1.09600e+03	8.87796e-02	5.86000e+02
1099	5.90261e+02	1.09900e+03	8.88002e-02	5.89000e+02
1102	5.93235e+02	1.10200e+03	8.88074e-02	5.92000e+02
1105	5.96206e+02	1.10500e+03	8.87666e-02	5.95000e+02
1108	5.99172e+02	1.10800e+03	8.87069e-02	5.98000e+02
1111	6.02152e+02	1.11100e+03	8.86590e-02	6.01000e+02
1114	6.05123e+02	1.11400e+03	8.86412e-02	6.04000e+02
1117	6.08014e+02	1.11700e+03	8.86406e-02	6.07000e+02
1120	6.10869e+02	1.12000e+03	8.86381e-02	6.10000e+02
1123	6.13725e+02	1.12300e+03	8.86308e-02	6.13000e+02
1126	6.16738e+02	1.12600e+03	8.86122e-02	6.16000e+02
1129	6.19689e+02	1.12900e+03	8.85755e-02	6.19000e+02
1132	6.22477e+02	1.13200e+03	8.85224e-02	6.22000e+02
1135	6.25385e+02	1.13500e+03	8.84704e-02	6.25000e+02
1138	6.28060e+02	1.13800e+03	8.84394e-02	6.28000e+02
1141	6.30873e+02	1.14100e+03	8.84443e-02	6.31000e+02
1144	6.33779e+02	1.14400e+03	8.84744e-02	6.34000e+02
1147	6.36642e+02	1.14700e+03	8.85043e-02	6.37000e+02
1150	6.39522e+02	1.15000e+03	8.85079e-02	6.40000e+02
1153	6.42406e+02	1.15300e+03	8.84752e-02	6.43000e+02
1156	6.45350e+02	1.15600e+03	8.84264e-02	6.46000e+02
1159	6.48314e+02	1.15900e+03	8.83634e-02	6.49000e+02
1162	6.51280e+02	1.16200e+03	8.82971e-02	6.52000e+02
1165	6.54235e+02	1.16500e+03	8.82508e-02	6.55000e+02
1168	6.57159e+02	1.16800e+03	8.82364e-02	6.58000e+02
1171	6.60103e+02	1.17100e+03	8.82588e-02	6.61000e+02
1174	6.63029e+02	1.17400e+03	8.83122e-02	6.64000e+02
1177	6.66001e+02	1.17700e+03	8.83363e-02	6.67000e+02
1180	6.68987e+02	1.18000e+03	8.83127e-02	6.70000e+02
1183	6.71974e+02	1.18300e+03	8.82813e-02	6.73000e+02
1186	6.73619e+02	1.18600e+03	8.83112e-02	6.76000e+02
1189	6.75465e+02	1.18900e+03	8.84702e-02	6.79000e+02
1192	6.77293e+02	1.19200e+03	8.86261e-02	6.82000e+02
1195	6.78966e+02	1.19500e+03	8.86988e-02	6.85000e+02
1198	6.80566e+02	1.19800e+03	8.86508e-02	6.88000e+02
1201	6.82077e+02	1.20100e+03	8.85872e-02	6.91000e+02
1204	6.83449e+02	1.20400e+03	8.85434e-02	6.94000e+02
1207	6.84746e+02	1.20700e+03	8.85271e-02	6.97000e+02
1210	6.85765e+02	1.21000e+03	8.85579e-02	7.00000e+02