File: Experiments/TGA/TUBS/tga_nonisotherm/tga_dynamic_n2high50_dyn30_powder_3mg_r2.txt
Index	Ts	t	Weight	Tr
[#]	[°C]	[s]	[mg]	[°C]
682	1.30468e+02	6.82000e+02	3.02956	131.0
692	1.35394e+02	6.92000e+02	3.02919	136.0
702	1.40397e+02	7.02000e+02	3.02844	141.0
712	1.45409e+02	7.12000e+02	3.02753	146.0
722	1.50427e+02	7.22000e+02	3.02574	151.0
732	1.55435e+02	7.32000e+02	3.02384	156.0
742	1.60462e+02	7.42000e+02	3.02132	161.0
752	1.65502e+02	7.52000e+02	3.01828	166.0
762	1.70545e+02	7.62000e+02	3.01433	171.0
772	1.75605e+02	7.72000e+02	3.0088	176.0
782	1.80658e+02	7.82000e+02	3.00047	181.0
792	1.85754e+02	7.92000e+02	2.98811	186.0
802	1.90830e+02	8.02000e+02	2.97264	191.0
812	1.95905e+02	8.12000e+02	2.95502	196.0
822	2.01005e+02	8.22000e+02	2.93812	201.0
832	2.06111e+02	8.32000e+02	2.92451	206.0
842	2.11210e+02	8.42000e+02	2.91492	211.0
852	2.16313e+02	8.52000e+02	2.90892	216.0
862	2.21427e+02	8.62000e+02	2.90478	221.0
872	2.26547e+02	8.72000e+02	2.90116	226.0
882	2.31590e+02	8.82000e+02	2.89757	231.0
892	2.36710e+02	8.92000e+02	2.89396	236.0
902	2.41713e+02	9.02000e+02	2.89028	241.0
912	2.46748e+02	9.12000e+02	2.8871	246.0
922	2.51845e+02	9.22000e+02	2.88435	251.0
932	2.57070e+02	9.32000e+02	2.88184	256.0
942	2.62214e+02	9.42000e+02	2.87936	261.0
952	2.67278e+02	9.52000e+02	2.87697	266.0
962	2.72418e+02	9.62000e+02	2.87396	271.0
972	2.77549e+02	9.72000e+02	2.87063	276.0
982	2.82625e+02	9.82000e+02	2.86641	281.0
992	2.87721e+02	9.92000e+02	2.86058	286.0
1002	2.92828e+02	1.00200e+03	2.85244	291.0
1012	2.97989e+02	1.01200e+03	2.84143	296.0
1022	3.03131e+02	1.02200e+03	2.8269	301.0
1032	3.08301e+02	1.03200e+03	2.80881	306.0
1042	3.13281e+02	1.04200e+03	2.7882	311.0
1052	3.18317e+02	1.05200e+03	2.76606	316.0
1062	3.23408e+02	1.06200e+03	2.74342	321.0
1072	3.28338e+02	1.07200e+03	2.71912	326.0
1082	3.33351e+02	1.08200e+03	2.69058	331.0
1092	3.38432e+02	1.09200e+03	2.65198	336.0
1102	3.43409e+02	1.10200e+03	2.60031	341.0
1112	3.48262e+02	1.11200e+03	2.53031	346.0
1122	3.53328e+02	1.12200e+03	2.43777	351.0
1132	3.58295e+02	1.13200e+03	2.31829	356.0
1142	3.63403e+02	1.14200e+03	2.17161	361.0
1152	3.68375e+02	1.15200e+03	1.99854	366.0
1162	3.73372e+02	1.16200e+03	1.80228	371.0
1172	3.78501e+02	1.17200e+03	1.58513	376.0
1182	3.83526e+02	1.18200e+03	1.35504	381.0
1192	3.88773e+02	1.19200e+03	1.1205	386.0
1202	3.93884e+02	1.20200e+03	0.889543	391.0
1212	3.98931e+02	1.21200e+03	0.6703	396.0
1222	4.04036e+02	1.22200e+03	0.47224	401.0
1232	4.09244e+02	1.23200e+03	0.310726	406.0
1242	4.14437e+02	1.24200e+03	0.190374	411.0
1252	4.19108e+02	1.25200e+03	0.105817	416.0
1262	4.24016e+02	1.26200e+03	0.0501017	421.0
1272	4.29175e+02	1.27200e+03	0.0168956	426.0
1282	4.34232e+02	1.28200e+03	-0.0018736	431.0
1292	4.39187e+02	1.29200e+03	-0.0118177	436.0
1302	4.44164e+02	1.30200e+03	-0.0170729	441.0
1312	4.49170e+02	1.31200e+03	-0.0198386	446.0
1322	4.54060e+02	1.32200e+03	-0.0213822	451.0
1332	4.58887e+02	1.33200e+03	-0.0221516	456.0
1342	4.63667e+02	1.34200e+03	-0.0222589	461.0
1352	4.68504e+02	1.35200e+03	-0.0226111	466.0
1362	4.73352e+02	1.36200e+03	-0.0230115	471.0
1372	4.78175e+02	1.37200e+03	-0.0229142	476.0
1382	4.83056e+02	1.38200e+03	-0.0229102	481.0
1392	4.87859e+02	1.39200e+03	-0.0230935	486.0
1402	4.92821e+02	1.40200e+03	-0.023522	491.0
1412	4.97705e+02	1.41200e+03	-0.0235596	496.0
1422	5.02718e+02	1.42200e+03	-0.0234472	501.0
1432	5.07602e+02	1.43200e+03	-0.0235709	506.0
1442	5.12478e+02	1.44200e+03	-0.0236778	511.0
1452	5.17440e+02	1.45200e+03	-0.023707	516.0
1462	5.22327e+02	1.46200e+03	-0.023745	521.0
1472	5.27201e+02	1.47200e+03	-0.0235677	526.0
1482	5.32046e+02	1.48200e+03	-0.023639	531.0
1492	5.37018e+02	1.49200e+03	-0.0238465	536.0
1502	5.42040e+02	1.50200e+03	-0.0238239	541.0
1512	5.46873e+02	1.51200e+03	-0.0238618	546.0
1522	5.51747e+02	1.52200e+03	-0.0239566	551.0
1532	5.56675e+02	1.53200e+03	-0.0240602	556.0
1542	5.61556e+02	1.54200e+03	-0.0241736	561.0
1552	5.66395e+02	1.55200e+03	-0.0242139	566.0
1562	5.71251e+02	1.56200e+03	-0.0241595	571.0
1572	5.76092e+02	1.57200e+03	-0.0241637	576.0
1582	5.81160e+02	1.58200e+03	-0.0241912	581.0
1592	5.85933e+02	1.59200e+03	-0.0241092	586.0
1602	5.90834e+02	1.60200e+03	-0.0242236	591.0
1612	5.95761e+02	1.61200e+03	-0.0242269	596.0
1622	6.00657e+02	1.62200e+03	-0.024231	601.0
1632	6.05568e+02	1.63200e+03	-0.0242306	606.0
1642	6.10482e+02	1.64200e+03	-0.0241932	611.0
1652	6.15453e+02	1.65200e+03	-0.0243308	616.0
1662	6.20459e+02	1.66200e+03	-0.0243135	621.0
1672	6.25438e+02	1.67200e+03	-0.0242227	626.0
1682	6.30427e+02	1.68200e+03	-0.0241365	631.0
1692	6.35352e+02	1.69200e+03	-0.0240344	636.0
1702	6.40361e+02	1.70200e+03	-0.0241748	641.0
1712	6.45331e+02	1.71200e+03	-0.0243191	646.0
1722	6.50404e+02	1.72200e+03	-0.0243387	651.0
1732	6.55426e+02	1.73200e+03	-0.0243307	656.0
1742	6.60402e+02	1.74200e+03	-0.0243819	661.0
1752	6.65359e+02	1.75200e+03	-0.0244338	666.0
1762	6.70325e+02	1.76200e+03	-0.0244169	671.0
1772	6.75290e+02	1.77200e+03	-0.0243209	676.0
1782	6.80411e+02	1.78200e+03	-0.0238784	681.0
1792	6.85613e+02	1.79200e+03	-0.0241608	686.0
1802	6.89262e+02	1.80200e+03	-0.0242269	691.0
1812	6.92281e+02	1.81200e+03	-0.0243815	696.0
1822	6.94416e+02	1.82200e+03	-0.0242346	700.0
1832	6.96020e+02	1.83200e+03	-0.0243807	700.0
1842	6.97216e+02	1.84200e+03	-0.0242349	700.0
1852	6.98122e+02	1.85200e+03	-0.0243148	700.0
1862	6.98847e+02	1.86200e+03	-0.0243696	700.0
1872	6.99411e+02	1.87200e+03	-0.0243101	700.0
1882	6.99857e+02	1.88200e+03	-0.0243356	700.0
1892	7.00235e+02	1.89200e+03	-0.0243643	700.0
1902	7.00449e+02	1.90200e+03	-0.0242681	700.0
1912	7.00669e+02	1.91200e+03	-0.0242434	700.0
1922	7.00856e+02	1.92200e+03	-0.0242768	700.0
1932	7.00982e+02	1.93200e+03	-0.0243012	700.0
1942	7.01112e+02	1.94200e+03	-0.0244206	700.0
1952	7.01204e+02	1.95200e+03	-0.0243078	700.0
1962	7.01271e+02	1.96200e+03	-0.0240691	700.0
1972	7.01334e+02	1.97200e+03	-0.0239584	700.0
1982	7.01379e+02	1.98200e+03	-0.0238023	700.0
1992	7.01416e+02	1.99200e+03	-0.0240683	700.0
2002	7.01458e+02	2.00200e+03	-0.0242156	700.0
2012	7.01480e+02	2.01200e+03	-0.024167	700.0
2022	7.01490e+02	2.02200e+03	-0.0242413	700.0
2032	7.01513e+02	2.03200e+03	-0.0242504	700.0
2042	7.01524e+02	2.04200e+03	-0.0240908	700.0
2052	7.01530e+02	2.05200e+03	-0.0240467	700.0
2062	7.01548e+02	2.06200e+03	-0.0241097	700.0
2072	7.01525e+02	2.07200e+03	-0.0240053	700.0
2082	7.01521e+02	2.08200e+03	-0.0241344	700.0
2092	7.01503e+02	2.09200e+03	-0.0240792	700.0
2102	7.01501e+02	2.10200e+03	-0.0240254	700.0
2112	7.01494e+02	2.11200e+03	-0.0241679	700.0
2122	7.01492e+02	2.12200e+03	-0.0240669	700.0
2132	7.01501e+02	2.13200e+03	-0.0239948	700.0
2142	7.01487e+02	2.14200e+03	-0.0242077	700.0
2152	7.01490e+02	2.15200e+03	-0.024285	700.0
2162	7.01467e+02	2.16200e+03	-0.0242383	700.0
2172	7.01463e+02	2.17200e+03	-0.0243381	700.0
2182	7.01451e+02	2.18200e+03	-0.0242586	700.0
2192	7.01449e+02	2.19200e+03	-0.0243001	700.0
2202	7.01419e+02	2.20200e+03	-0.0242014	700.0
2212	7.01406e+02	2.21200e+03	-0.0242047	700.0
2222	7.01394e+02	2.22200e+03	-0.023975	700.0
2232	7.01379e+02	2.23200e+03	-0.0242986	700.0
2242	7.01379e+02	2.24200e+03	-0.0244372	700.0
2252	7.01373e+02	2.25200e+03	-0.0244448	700.0
2262	7.01368e+02	2.26200e+03	-0.024398	700.0
2272	7.01349e+02	2.27200e+03	-0.0245472	700.0
2282	7.01337e+02	2.28200e+03	-0.0243966	700.0
2292	7.01323e+02	2.29200e+03	-0.0243804	700.0
2302	7.01305e+02	2.30200e+03	-0.024643	700.0
2312	7.01297e+02	2.31200e+03	-0.0245998	700.0
2322	7.01286e+02	2.32200e+03	-0.0244454	700.0
2332	7.01273e+02	2.33200e+03	-0.0243159	700.0
2342	7.01268e+02	2.34200e+03	-0.0244279	700.0
2352	7.01251e+02	2.35200e+03	-0.0245285	700.0
2362	7.01242e+02	2.36200e+03	-0.0244962	700.0
2372	7.01232e+02	2.37200e+03	-0.0246131	700.0
2382	7.01226e+02	2.38200e+03	-0.0245822	700.0
2392	7.01225e+02	2.39200e+03	-0.0244841	700.0
2402	7.01212e+02	2.40200e+03	-0.024552	700.0
2412	7.01200e+02	2.41200e+03	-0.0245765	700.0
2422	7.01187e+02	2.42200e+03	-0.0245414	700.0
2432	7.01182e+02	2.43200e+03	-0.0245658	700.0
2442	7.01171e+02	2.44200e+03	-0.0246296	700.0
2452	7.01165e+02	2.45200e+03	-0.0246353	700.0
2462	7.01155e+02	2.46200e+03	-0.0245552	700.0
2472	7.01151e+02	2.47200e+03	-0.0245825	700.0
2482	7.01143e+02	2.48200e+03	-0.0246007	700.0
2492	7.01129e+02	2.49200e+03	-0.0245879	700.0
2502	7.01137e+02	2.50200e+03	-0.0246315	700.0
2512	7.01121e+02	2.51200e+03	-0.0246275	700.0
2522	7.01121e+02	2.52200e+03	-0.0246586	700.0
2532	7.01129e+02	2.53200e+03	-0.0246998	700.0
2542	7.01120e+02	2.54200e+03	-0.024723	700.0
2552	7.01115e+02	2.55200e+03	-0.0247575	700.0
2562	7.01132e+02	2.56200e+03	-0.0246489	700.0
2572	7.01128e+02	2.57200e+03	-0.0247272	700.0
2582	7.01116e+02	2.58200e+03	-0.0248702	700.0
2592	7.01115e+02	2.59200e+03	-0.0246534	700.0
2602	7.01112e+02	2.60200e+03	-0.024646	700.0
2612	7.01110e+02	2.61200e+03	-0.0247307	700.0
2622	7.01108e+02	2.62200e+03	-0.0246952	700.0
2632	7.01106e+02	2.63200e+03	-0.0248211	700.0
2642	7.01109e+02	2.64200e+03	-0.0247173	700.0
2652	7.01096e+02	2.65200e+03	-0.0245685	700.0
2662	7.01091e+02	2.66200e+03	-0.0245838	700.0
2672	7.01073e+02	2.67200e+03	-0.0245609	700.0
2682	7.01069e+02	2.68200e+03	-0.0246675	700.0
2692	7.01063e+02	2.69200e+03	-0.0246618	700.0
2702	7.01056e+02	2.70200e+03	-0.024602	700.0
2712	7.01046e+02	2.71200e+03	-0.0245701	700.0
2720	7.01044e+02	2.72000e+03	-0.0246661	700.0