File: Experiments/TGA/TUBS/tga_nonisotherm/tga_dynamic_n2high50_dyn30_powder_3mg_r1.txt
Index	Ts	t	Weight	Tr
[#]	[°C]	[s]	[mg]	[°C]
681	1.30102e+02	6.81000e+02	2.96888	130.5
691	1.35128e+02	6.91000e+02	2.96863	135.5
701	1.40146e+02	7.01000e+02	2.96796	140.5
711	1.45208e+02	7.11000e+02	2.96698	145.5
721	1.50267e+02	7.21000e+02	2.96541	150.5
731	1.55316e+02	7.31000e+02	2.96366	155.5
741	1.60375e+02	7.41000e+02	2.96138	160.5
751	1.65431e+02	7.51000e+02	2.95869	165.5
761	1.70492e+02	7.61000e+02	2.9553	170.5
771	1.75563e+02	7.71000e+02	2.95085	175.5
781	1.80624e+02	7.81000e+02	2.94401	180.5
791	1.85700e+02	7.91000e+02	2.93387	185.5
801	1.90793e+02	8.01000e+02	2.92029	190.5
811	1.95850e+02	8.11000e+02	2.90444	195.5
821	2.00962e+02	8.21000e+02	2.88841	200.5
831	2.06056e+02	8.31000e+02	2.87508	205.5
841	2.11190e+02	8.41000e+02	2.86568	210.5
851	2.16390e+02	8.51000e+02	2.85979	215.5
861	2.21544e+02	8.61000e+02	2.85568	220.5
871	2.26647e+02	8.71000e+02	2.85213	225.5
881	2.31712e+02	8.81000e+02	2.84869	230.5
891	2.36819e+02	8.91000e+02	2.84509	235.5
901	2.41928e+02	9.01000e+02	2.84148	240.5
911	2.47091e+02	9.11000e+02	2.83809	245.5
921	2.52220e+02	9.21000e+02	2.83549	250.5
931	2.57471e+02	9.31000e+02	2.83287	255.5
941	2.62647e+02	9.41000e+02	2.83042	260.5
951	2.67769e+02	9.51000e+02	2.82831	265.5
961	2.72876e+02	9.61000e+02	2.82529	270.5
971	2.77959e+02	9.71000e+02	2.82211	275.5
981	2.83022e+02	9.81000e+02	2.81814	280.5
991	2.88093e+02	9.91000e+02	2.81273	285.5
1001	2.93138e+02	1.00100e+03	2.80531	290.5
1011	2.98111e+02	1.01100e+03	2.79503	295.5
1021	3.03009e+02	1.02100e+03	2.78131	300.5
1031	3.07802e+02	1.03100e+03	2.76395	305.5
1041	3.12667e+02	1.04100e+03	2.74392	310.5
1051	3.17641e+02	1.05100e+03	2.72189	315.5
1061	3.22643e+02	1.06100e+03	2.69789	320.5
1071	3.27674e+02	1.07100e+03	2.6718	325.5
1081	3.32664e+02	1.08100e+03	2.64314	330.5
1091	3.37667e+02	1.09100e+03	2.60687	335.5
1101	3.42654e+02	1.10100e+03	2.55802	340.5
1111	3.47642e+02	1.11100e+03	2.4926	345.5
1121	3.52628e+02	1.12100e+03	2.40474	350.5
1131	3.57560e+02	1.13100e+03	2.29161	355.5
1141	3.62461e+02	1.14100e+03	2.15098	360.5
1151	3.67392e+02	1.15100e+03	1.98567	365.5
1161	3.72357e+02	1.16100e+03	1.79738	370.5
1171	3.77395e+02	1.17100e+03	1.58869	375.5
1181	3.82412e+02	1.18100e+03	1.36603	380.5
1191	3.87373e+02	1.19100e+03	1.13801	385.5
1201	3.92386e+02	1.20100e+03	0.919217	390.5
1211	3.97349e+02	1.21100e+03	0.710096	395.5
1221	4.02376e+02	1.22100e+03	0.522125	400.5
1231	4.07420e+02	1.23100e+03	0.367839	405.5
1241	4.12518e+02	1.24100e+03	0.252946	410.5
1251	4.17561e+02	1.25100e+03	0.170187	415.5
1261	4.22606e+02	1.26100e+03	0.115855	420.5
1271	4.27610e+02	1.27100e+03	0.082344	425.5
1281	4.32586e+02	1.28100e+03	0.0636338	430.5
1291	4.37535e+02	1.29100e+03	0.0532563	435.5
1301	4.42484e+02	1.30100e+03	0.0478245	440.5
1311	4.47413e+02	1.31100e+03	0.0451114	445.5
1321	4.52329e+02	1.32100e+03	0.0435079	450.5
1331	4.57256e+02	1.33100e+03	0.0427625	455.5
1341	4.62173e+02	1.34100e+03	0.0424832	460.5
1351	4.67112e+02	1.35100e+03	0.0421751	465.5
1361	4.71993e+02	1.36100e+03	0.0417492	470.5
1371	4.76874e+02	1.37100e+03	0.0416492	475.5
1381	4.81783e+02	1.38100e+03	0.0414956	480.5
1391	4.86683e+02	1.39100e+03	0.041296	485.5
1401	4.91585e+02	1.40100e+03	0.0408002	490.5
1411	4.96495e+02	1.41100e+03	0.040513	495.5
1421	5.01367e+02	1.42100e+03	0.0404822	500.5
1431	5.06234e+02	1.43100e+03	0.0403769	505.5
1441	5.11126e+02	1.44100e+03	0.0400683	510.5
1451	5.15998e+02	1.45100e+03	0.0399699	515.5
1461	5.20914e+02	1.46100e+03	0.0398673	520.5
1471	5.25819e+02	1.47100e+03	0.0397398	525.5
1481	5.30718e+02	1.48100e+03	0.0394475	530.5
1491	5.35642e+02	1.49100e+03	0.0391677	535.5
1501	5.40571e+02	1.50100e+03	0.0391227	540.5
1511	5.45504e+02	1.51100e+03	0.0389349	545.5
1521	5.50430e+02	1.52100e+03	0.0387679	550.5
1531	5.55339e+02	1.53100e+03	0.0386481	555.5
1541	5.60248e+02	1.54100e+03	0.0384959	560.5
1551	5.65169e+02	1.55100e+03	0.0382709	565.5
1561	5.70074e+02	1.56100e+03	0.0383724	570.5
1571	5.75015e+02	1.57100e+03	0.0384093	575.5
1581	5.80026e+02	1.58100e+03	0.0382919	580.5
1591	5.84966e+02	1.59100e+03	0.0383055	585.5
1601	5.89951e+02	1.60100e+03	0.0383243	590.5
1611	5.95050e+02	1.61100e+03	0.0383367	595.5
1621	6.01205e+02	1.62100e+03	0.0383405	600.5
1631	6.06203e+02	1.63100e+03	0.0383143	605.5
1641	6.11044e+02	1.64100e+03	0.038288	610.5
1651	6.15939e+02	1.65100e+03	0.038348	615.5
1661	6.20870e+02	1.66100e+03	0.0382282	620.5
1671	6.25760e+02	1.67100e+03	0.0382599	625.5
1681	6.30765e+02	1.68100e+03	0.0382337	630.5
1691	6.35711e+02	1.69100e+03	0.0382911	635.5
1701	6.40659e+02	1.70100e+03	0.0382223	640.5
1711	6.45593e+02	1.71100e+03	0.0380912	645.5
1721	6.50596e+02	1.72100e+03	0.0381632	650.5
1731	6.55538e+02	1.73100e+03	0.0380602	655.5
1741	6.60509e+02	1.74100e+03	0.038116	660.5
1751	6.65408e+02	1.75100e+03	0.0380118	665.5
1761	6.70328e+02	1.76100e+03	0.0381068	670.5
1771	6.75277e+02	1.77100e+03	0.038045	675.5
1781	6.80178e+02	1.78100e+03	0.0385287	680.5
1791	6.85095e+02	1.79100e+03	0.0383458	685.5
1801	6.88713e+02	1.80100e+03	0.0381878	690.5
1811	6.91555e+02	1.81100e+03	0.0379926	695.5
1821	6.93697e+02	1.82100e+03	0.0381548	700.0
1831	6.95244e+02	1.83100e+03	0.0381358	700.0
1841	6.96312e+02	1.84100e+03	0.0380722	700.0
1851	6.97157e+02	1.85100e+03	0.038079	700.0
1861	6.97801e+02	1.86100e+03	0.0380433	700.0
1871	6.98330e+02	1.87100e+03	0.0380172	700.0
1881	6.98725e+02	1.88100e+03	0.0380957	700.0
1891	6.99027e+02	1.89100e+03	0.0380589	700.0
1901	6.99268e+02	1.90100e+03	0.0380718	700.0
1911	6.99453e+02	1.91100e+03	0.0380859	700.0
1921	6.99616e+02	1.92100e+03	0.0380554	700.0
1931	6.99735e+02	1.93100e+03	0.0380618	700.0
1941	6.99839e+02	1.94100e+03	0.0378786	700.0
1951	6.99914e+02	1.95100e+03	0.0379357	700.0
1961	6.99965e+02	1.96100e+03	0.0381267	700.0
1971	7.00013e+02	1.97100e+03	0.0380763	700.0
1981	7.00055e+02	1.98100e+03	0.0383445	700.0
1991	7.00088e+02	1.99100e+03	0.0380765	700.0
2001	7.00111e+02	2.00100e+03	0.0378698	700.0
2011	7.00125e+02	2.01100e+03	0.0379824	700.0
2021	7.00141e+02	2.02100e+03	0.0378718	700.0
2031	7.00145e+02	2.03100e+03	0.0377324	700.0
2041	7.00157e+02	2.04100e+03	0.0377889	700.0
2051	7.00169e+02	2.05100e+03	0.0379067	700.0
2061	7.00176e+02	2.06100e+03	0.0378498	700.0
2071	7.00189e+02	2.07100e+03	0.0378626	700.0
2081	7.00191e+02	2.08100e+03	0.0377956	700.0
2091	7.00189e+02	2.09100e+03	0.0378957	700.0
2101	7.00192e+02	2.10100e+03	0.0380764	700.0
2111	7.00182e+02	2.11100e+03	0.0379664	700.0
2121	7.00186e+02	2.12100e+03	0.0380098	700.0
2131	7.00193e+02	2.13100e+03	0.0379095	700.0
2141	7.00183e+02	2.14100e+03	0.0378904	700.0
2151	7.00185e+02	2.15100e+03	0.037847	700.0
2161	7.00186e+02	2.16100e+03	0.0377708	700.0
2171	7.00177e+02	2.17100e+03	0.0377983	700.0
2181	7.00175e+02	2.18100e+03	0.0378027	700.0
2191	7.00172e+02	2.19100e+03	0.0377964	700.0
2201	7.00163e+02	2.20100e+03	0.0376744	700.0
2211	7.00158e+02	2.21100e+03	0.0376537	700.0
2221	7.00149e+02	2.22100e+03	0.0379184	700.0
2231	7.00149e+02	2.23100e+03	0.0376744	700.0
2241	7.00137e+02	2.24100e+03	0.0375565	700.0
2251	7.00140e+02	2.25100e+03	0.0376009	700.0
2261	7.00132e+02	2.26100e+03	0.0377699	700.0
2271	7.00129e+02	2.27100e+03	0.0376112	700.0
2281	7.00120e+02	2.28100e+03	0.0376521	700.0
2291	7.00126e+02	2.29100e+03	0.0377467	700.0
2301	7.00109e+02	2.30100e+03	0.0374508	700.0
2311	7.00119e+02	2.31100e+03	0.037562	700.0
2321	7.00111e+02	2.32100e+03	0.0376597	700.0
2331	7.00107e+02	2.33100e+03	0.0376881	700.0
2341	7.00100e+02	2.34100e+03	0.0376622	700.0
2351	7.00106e+02	2.35100e+03	0.0376483	700.0
2361	7.00101e+02	2.36100e+03	0.0377357	700.0
2371	7.00094e+02	2.37100e+03	0.0375559	700.0
2381	7.00091e+02	2.38100e+03	0.0376324	700.0
2391	7.00088e+02	2.39100e+03	0.0377716	700.0
2401	7.00094e+02	2.40100e+03	0.0376599	700.0
2411	7.00092e+02	2.41100e+03	0.0376775	700.0
2421	7.00081e+02	2.42100e+03	0.0376727	700.0
2431	7.00083e+02	2.43100e+03	0.0376619	700.0
2441	7.00072e+02	2.44100e+03	0.0375999	700.0
2451	7.00071e+02	2.45100e+03	0.0376496	700.0
2461	7.00073e+02	2.46100e+03	0.0376855	700.0
2471	7.00064e+02	2.47100e+03	0.0375871	700.0
2481	7.00061e+02	2.48100e+03	0.0376401	700.0
2491	7.00066e+02	2.49100e+03	0.0375494	700.0
2501	7.00061e+02	2.50100e+03	0.0375808	700.0
2511	7.00051e+02	2.51100e+03	0.0375921	700.0
2521	7.00059e+02	2.52100e+03	0.0376435	700.0
2531	7.00046e+02	2.53100e+03	0.0376036	700.0
2541	7.00042e+02	2.54100e+03	0.0376721	700.0
2551	7.00053e+02	2.55100e+03	0.0376883	700.0
2561	7.00046e+02	2.56100e+03	0.037905	700.0
2571	7.00042e+02	2.57100e+03	0.0378065	700.0
2581	7.00047e+02	2.58100e+03	0.0375814	700.0
2591	7.00033e+02	2.59100e+03	0.0377733	700.0
2601	7.00027e+02	2.60100e+03	0.0378055	700.0
2611	7.00020e+02	2.61100e+03	0.0376207	700.0
2621	7.00023e+02	2.62100e+03	0.0376937	700.0
2631	7.00021e+02	2.63100e+03	0.0376776	700.0
2641	7.00022e+02	2.64100e+03	0.0376268	700.0
2651	7.00019e+02	2.65100e+03	0.0377273	700.0
2661	7.00017e+02	2.66100e+03	0.0376604	700.0
2671	7.00026e+02	2.67100e+03	0.0377879	700.0
2681	7.00015e+02	2.68100e+03	0.037792	700.0
2691	7.00015e+02	2.69100e+03	0.0376332	700.0
2701	7.00015e+02	2.70100e+03	0.0377251	700.0
2711	7.00016e+02	2.71100e+03	0.0376907	700.0
2720	7.00003e+02	2.72000e+03	0.0377101	700.0