File: Experiments/TGA/TUBS/tga_nonisotherm/tga_dynamic_n2high60_dyn30_piece_3mg_r1.txt
Index	Ts	t	Weight	Tr
[#]	[°C]	[s]	[mg]	[°C]
681	1.30049e+02	6.81000e+02	3.03607	130.5
691	1.35087e+02	6.91000e+02	3.036	135.5
701	1.40154e+02	7.01000e+02	3.03597	140.5
711	1.45197e+02	7.11000e+02	3.03562	145.5
721	1.50269e+02	7.21000e+02	3.03547	150.5
731	1.55321e+02	7.31000e+02	3.03531	155.5
741	1.60388e+02	7.41000e+02	3.03477	160.5
751	1.65460e+02	7.51000e+02	3.03444	165.5
761	1.70552e+02	7.61000e+02	3.0338	170.5
771	1.75642e+02	7.71000e+02	3.03323	175.5
781	1.80727e+02	7.81000e+02	3.03264	180.5
791	1.85806e+02	7.91000e+02	3.03173	185.5
801	1.90898e+02	8.01000e+02	3.0304	190.5
811	1.96005e+02	8.11000e+02	3.02863	195.5
821	2.01086e+02	8.21000e+02	3.02629	200.5
831	2.06200e+02	8.31000e+02	3.02322	205.5
841	2.11320e+02	8.41000e+02	3.01981	210.5
851	2.16438e+02	8.51000e+02	3.01633	215.5
861	2.21502e+02	8.61000e+02	3.01278	220.5
871	2.26604e+02	8.71000e+02	3.00931	225.5
881	2.31696e+02	8.81000e+02	3.00549	230.5
891	2.36839e+02	8.91000e+02	3.00154	235.5
901	2.41973e+02	9.01000e+02	2.99743	240.5
911	2.47096e+02	9.11000e+02	2.99347	245.5
921	2.52232e+02	9.21000e+02	2.98931	250.5
931	2.57390e+02	9.31000e+02	2.98499	255.5
941	2.62483e+02	9.41000e+02	2.98039	260.5
951	2.67529e+02	9.51000e+02	2.97545	265.5
961	2.72748e+02	9.61000e+02	2.97103	270.5
971	2.77971e+02	9.71000e+02	2.96584	275.5
981	2.83101e+02	9.81000e+02	2.95804	280.5
991	2.88161e+02	9.91000e+02	2.95078	285.5
1001	2.93238e+02	1.00100e+03	2.94199	290.5
1011	2.98306e+02	1.01100e+03	2.93331	295.5
1021	3.03315e+02	1.02100e+03	2.92336	300.5
1031	3.07928e+02	1.03100e+03	2.91204	305.5
1041	3.12302e+02	1.04100e+03	2.89893	310.5
1051	3.16773e+02	1.05100e+03	2.8836	315.5
1061	3.21552e+02	1.06100e+03	2.86548	320.5
1071	3.26495e+02	1.07100e+03	2.84675	325.5
1081	3.31508e+02	1.08100e+03	2.82777	330.5
1091	3.36561e+02	1.09100e+03	2.80631	335.5
1101	3.41791e+02	1.10100e+03	2.77908	340.5
1111	3.46850e+02	1.11100e+03	2.74384	345.5
1121	3.51885e+02	1.12100e+03	2.69514	350.5
1131	3.56784e+02	1.13100e+03	2.62833	355.5
1141	3.61725e+02	1.14100e+03	2.53286	360.5
1151	3.66695e+02	1.15100e+03	2.39823	365.5
1161	3.71667e+02	1.16100e+03	2.22197	370.5
1171	3.76744e+02	1.17100e+03	2.00711	375.5
1181	3.81721e+02	1.18100e+03	1.77049	380.5
1191	3.86709e+02	1.19100e+03	1.52432	385.5
1201	3.91774e+02	1.20100e+03	1.26702	390.5
1211	3.96741e+02	1.21100e+03	1.00904	395.5
1221	4.01773e+02	1.22100e+03	0.743903	400.5
1231	4.06928e+02	1.23100e+03	0.493776	405.5
1241	4.12082e+02	1.24100e+03	0.302653	410.5
1251	4.17063e+02	1.25100e+03	0.174562	415.5
1261	4.22040e+02	1.26100e+03	0.0988327	420.5
1271	4.27057e+02	1.27100e+03	0.0561367	425.5
1281	4.32162e+02	1.28100e+03	0.034642	430.5
1291	4.37143e+02	1.29100e+03	0.0232443	435.5
1301	4.42071e+02	1.30100e+03	0.0170844	440.5
1311	4.46957e+02	1.31100e+03	0.0134883	445.5
1321	4.51823e+02	1.32100e+03	0.0111708	450.5
1331	4.56580e+02	1.33100e+03	0.00995222	455.5
1341	4.61427e+02	1.34100e+03	0.00962284	460.5
1351	4.66320e+02	1.35100e+03	0.00942156	465.5
1361	4.71170e+02	1.36100e+03	0.00948525	470.5
1371	4.76044e+02	1.37100e+03	0.00935604	475.5
1381	4.80892e+02	1.38100e+03	0.00885429	480.5
1391	4.85844e+02	1.39100e+03	0.0087059	485.5
1401	4.90776e+02	1.40100e+03	0.00855936	490.5
1411	4.95715e+02	1.41100e+03	0.00843896	495.5
1421	5.00555e+02	1.42100e+03	0.00842714	500.5
1431	5.05487e+02	1.43100e+03	0.008143	505.5
1441	5.10382e+02	1.44100e+03	0.00794731	510.5
1451	5.15252e+02	1.45100e+03	0.00794915	515.5
1461	5.20174e+02	1.46100e+03	0.00783887	520.5
1471	5.25033e+02	1.47100e+03	0.00782025	525.5
1481	5.29933e+02	1.48100e+03	0.0076301	530.5
1491	5.34928e+02	1.49100e+03	0.00761951	535.5
1501	5.39994e+02	1.50100e+03	0.00749247	540.5
1511	5.45001e+02	1.51100e+03	0.00754675	545.5
1521	5.49969e+02	1.52100e+03	0.00734893	550.5
1531	5.55159e+02	1.53100e+03	0.00759415	555.5
1541	5.62930e+02	1.54100e+03	0.00754208	560.5
1551	5.67303e+02	1.55100e+03	0.00738205	565.5
1561	5.72118e+02	1.56100e+03	0.00735928	570.5
1571	5.76763e+02	1.57100e+03	0.00744071	575.5
1581	5.81575e+02	1.58100e+03	0.00747891	580.5
1591	5.86357e+02	1.59100e+03	0.0074344	585.5
1601	5.91205e+02	1.60100e+03	0.00753128	590.5
1611	5.96108e+02	1.61100e+03	0.00763156	595.5
1621	6.01090e+02	1.62100e+03	0.00756053	600.5
1631	6.05768e+02	1.63100e+03	0.007489	605.5
1641	6.10509e+02	1.64100e+03	0.00735199	610.5
1651	6.15333e+02	1.65100e+03	0.00742928	615.5
1661	6.20183e+02	1.66100e+03	0.00735759	620.5
1671	6.25464e+02	1.67100e+03	0.00742515	625.5
1681	6.31941e+02	1.68100e+03	0.00727681	630.5
1691	6.36527e+02	1.69100e+03	0.00734042	635.5
1701	6.41312e+02	1.70100e+03	0.00746753	640.5
1711	6.46168e+02	1.71100e+03	0.00733889	645.5
1721	6.51018e+02	1.72100e+03	0.00758012	650.5
1731	6.55853e+02	1.73100e+03	0.00737592	655.5
1741	6.60666e+02	1.74100e+03	0.00723121	660.5
1751	6.65528e+02	1.75100e+03	0.00736401	665.5
1761	6.70423e+02	1.76100e+03	0.00751586	670.5
1771	6.75318e+02	1.77100e+03	0.00750423	675.5
1781	6.80106e+02	1.78100e+03	0.00726462	680.5
1791	6.85072e+02	1.79100e+03	0.00715657	685.5
1801	6.88688e+02	1.80100e+03	0.00746257	690.5
1811	6.91448e+02	1.81100e+03	0.00728428	695.5
1821	6.93516e+02	1.82100e+03	0.00718688	700.0
1831	6.95035e+02	1.83100e+03	0.00713549	700.0
1841	6.96140e+02	1.84100e+03	0.00715006	700.0
1851	6.97006e+02	1.85100e+03	0.00722997	700.0
1861	6.97714e+02	1.86100e+03	0.00718393	700.0
1871	6.98267e+02	1.87100e+03	0.00707018	700.0
1881	6.98654e+02	1.88100e+03	0.00701447	700.0
1891	6.98941e+02	1.89100e+03	0.00719391	700.0
1901	6.99206e+02	1.90100e+03	0.00700776	700.0
1911	6.99383e+02	1.91100e+03	0.00703203	700.0
1921	6.99522e+02	1.92100e+03	0.006973	700.0
1931	6.99612e+02	1.93100e+03	0.00706337	700.0
1941	6.99685e+02	1.94100e+03	0.00714365	700.0
1951	6.99734e+02	1.95100e+03	0.00712444	700.0
1961	6.99777e+02	1.96100e+03	0.00699008	700.0
1971	6.99820e+02	1.97100e+03	0.0071003	700.0
1981	6.99838e+02	1.98100e+03	0.00713009	700.0
1991	6.99863e+02	1.99100e+03	0.00710537	700.0
2001	6.99872e+02	2.00100e+03	0.00711694	700.0
2011	6.99887e+02	2.01100e+03	0.0070703	700.0
2021	6.99894e+02	2.02100e+03	0.00724603	700.0
2031	6.99903e+02	2.03100e+03	0.00731365	700.0
2041	6.99897e+02	2.04100e+03	0.00735622	700.0
2051	6.99904e+02	2.05100e+03	0.0072677	700.0
2061	6.99894e+02	2.06100e+03	0.00717098	700.0
2071	6.99895e+02	2.07100e+03	0.00722456	700.0
2081	6.99894e+02	2.08100e+03	0.00725859	700.0
2091	6.99890e+02	2.09100e+03	0.00714341	700.0
2101	6.99888e+02	2.10100e+03	0.00708065	700.0
2111	6.99879e+02	2.11100e+03	0.00711047	700.0
2121	6.99866e+02	2.12100e+03	0.00715824	700.0
2131	6.99862e+02	2.13100e+03	0.00691571	700.0
2141	6.99854e+02	2.14100e+03	0.0069567	700.0
2151	6.99846e+02	2.15100e+03	0.00700437	700.0
2161	6.99836e+02	2.16100e+03	0.00696239	700.0
2171	6.99818e+02	2.17100e+03	0.00715784	700.0
2181	6.99811e+02	2.18100e+03	0.0070589	700.0
2191	6.99800e+02	2.19100e+03	0.00687247	700.0
2201	6.99790e+02	2.20100e+03	0.00704202	700.0
2211	6.99779e+02	2.21100e+03	0.00714332	700.0
2221	6.99771e+02	2.22100e+03	0.00713089	700.0
2231	6.99758e+02	2.23100e+03	0.00721356	700.0
2241	6.99754e+02	2.24100e+03	0.00692711	700.0
2251	6.99744e+02	2.25100e+03	0.00680641	700.0
2261	6.99727e+02	2.26100e+03	0.00686929	700.0
2271	6.99720e+02	2.27100e+03	0.00698676	700.0
2281	6.99706e+02	2.28100e+03	0.00709402	700.0
2291	6.99694e+02	2.29100e+03	0.00700641	700.0
2301	6.99700e+02	2.30100e+03	0.00689763	700.0
2311	6.99699e+02	2.31100e+03	0.00693772	700.0
2321	6.99687e+02	2.32100e+03	0.00700212	700.0
2331	6.99666e+02	2.33100e+03	0.00686897	700.0
2341	6.99670e+02	2.34100e+03	0.00686962	700.0
2351	6.99663e+02	2.35100e+03	0.0067421	700.0
2361	6.99673e+02	2.36100e+03	0.00694385	700.0
2371	6.99657e+02	2.37100e+03	0.00678648	700.0
2381	6.99646e+02	2.38100e+03	0.00687312	700.0
2391	6.99643e+02	2.39100e+03	0.00686731	700.0
2401	6.99642e+02	2.40100e+03	0.00681037	700.0
2411	6.99633e+02	2.41100e+03	0.00672641	700.0
2421	6.99630e+02	2.42100e+03	0.00690473	700.0
2431	6.99633e+02	2.43100e+03	0.00699354	700.0
2441	6.99622e+02	2.44100e+03	0.00696844	700.0
2451	6.99628e+02	2.45100e+03	0.00694605	700.0
2461	6.99623e+02	2.46100e+03	0.00700446	700.0
2471	6.99602e+02	2.47100e+03	0.00703007	700.0
2481	6.99612e+02	2.48100e+03	0.00692037	700.0
2491	6.99607e+02	2.49100e+03	0.00704259	700.0
2501	6.99586e+02	2.50100e+03	0.00694721	700.0
2511	6.99594e+02	2.51100e+03	0.00675452	700.0
2521	6.99583e+02	2.52100e+03	0.00692827	700.0
2531	6.99590e+02	2.53100e+03	0.00706926	700.0
2541	6.99584e+02	2.54100e+03	0.0068731	700.0
2551	6.99584e+02	2.55100e+03	0.00689648	700.0
2561	6.99587e+02	2.56100e+03	0.00683864	700.0
2571	6.99576e+02	2.57100e+03	0.00677199	700.0
2581	6.99570e+02	2.58100e+03	0.00681486	700.0
2591	6.99565e+02	2.59100e+03	0.00685026	700.0
2601	6.99562e+02	2.60100e+03	0.00680872	700.0
2611	6.99562e+02	2.61100e+03	0.00680415	700.0
2621	6.99562e+02	2.62100e+03	0.00689009	700.0
2631	6.99559e+02	2.63100e+03	0.00680578	700.0
2641	6.99552e+02	2.64100e+03	0.00696289	700.0
2651	6.99555e+02	2.65100e+03	0.00661419	700.0
2661	6.99546e+02	2.66100e+03	0.00663727	700.0
2671	6.99552e+02	2.67100e+03	0.00672611	700.0
2681	6.99537e+02	2.68100e+03	0.00666749	700.0
2691	6.99542e+02	2.69100e+03	0.00667245	700.0
2701	6.99537e+02	2.70100e+03	0.00668029	700.0
2711	6.99541e+02	2.71100e+03	0.00675669	700.0
2720	6.99539e+02	2.72000e+03	0.00670277	700.0