File: Experiments/TGA/TUBS/tga_nonisotherm/tga_dynamic_n2_dyn30_piece_3mg_r1.txt
index	ts	t	weight	tr
[#]	[°C]	[s]	[mg]	[°C]
683	1.30822e+02	6.83000e+02	3.05140e+00	1.31500e+02
690	1.34345e+02	6.90000e+02	3.05128e+00	1.35000e+02
697	1.37853e+02	6.97000e+02	3.05115e+00	1.38500e+02
704	1.41341e+02	7.04000e+02	3.05099e+00	1.42000e+02
711	1.44871e+02	7.11000e+02	3.05086e+00	1.45500e+02
718	1.48391e+02	7.18000e+02	3.05066e+00	1.49000e+02
725	1.51900e+02	7.25000e+02	3.05043e+00	1.52500e+02
732	1.55424e+02	7.32000e+02	3.05025e+00	1.56000e+02
739	1.58955e+02	7.39000e+02	3.04996e+00	1.59500e+02
746	1.62481e+02	7.46000e+02	3.04963e+00	1.63000e+02
753	1.65998e+02	7.53000e+02	3.04932e+00	1.66500e+02
760	1.69547e+02	7.60000e+02	3.04880e+00	1.70000e+02
767	1.73076e+02	7.67000e+02	3.04842e+00	1.73500e+02
774	1.76632e+02	7.74000e+02	3.04805e+00	1.77000e+02
781	1.80164e+02	7.81000e+02	3.04767e+00	1.80500e+02
788	1.83712e+02	7.88000e+02	3.04716e+00	1.84000e+02
795	1.87267e+02	7.95000e+02	3.04630e+00	1.87500e+02
802	1.90832e+02	8.02000e+02	3.04528e+00	1.91000e+02
809	1.94376e+02	8.09000e+02	3.04400e+00	1.94500e+02
816	1.97929e+02	8.16000e+02	3.04242e+00	1.98000e+02
823	2.01514e+02	8.23000e+02	3.04044e+00	2.01500e+02
830	2.05075e+02	8.30000e+02	3.03817e+00	2.05000e+02
837	2.08655e+02	8.37000e+02	3.03572e+00	2.08500e+02
844	2.12204e+02	8.44000e+02	3.03294e+00	2.12000e+02
851	2.15780e+02	8.51000e+02	3.03016e+00	2.15500e+02
858	2.19350e+02	8.58000e+02	3.02747e+00	2.19000e+02
865	2.22911e+02	8.65000e+02	3.02471e+00	2.22500e+02
872	2.26494e+02	8.72000e+02	3.02205e+00	2.26000e+02
879	2.30051e+02	8.79000e+02	3.01915e+00	2.29500e+02
886	2.33637e+02	8.86000e+02	3.01592e+00	2.33000e+02
893	2.37191e+02	8.93000e+02	3.01278e+00	2.36500e+02
900	2.40763e+02	9.00000e+02	3.00966e+00	2.40000e+02
907	2.44336e+02	9.07000e+02	3.00634e+00	2.43500e+02
914	2.47884e+02	9.14000e+02	3.00290e+00	2.47000e+02
921	2.51452e+02	9.21000e+02	2.99938e+00	2.50500e+02
928	2.55009e+02	9.28000e+02	2.99579e+00	2.54000e+02
935	2.58582e+02	9.35000e+02	2.99220e+00	2.57500e+02
942	2.62130e+02	9.42000e+02	2.98842e+00	2.61000e+02
949	2.65699e+02	9.49000e+02	2.98468e+00	2.64500e+02
956	2.69288e+02	9.56000e+02	2.98092e+00	2.68000e+02
963	2.72886e+02	9.63000e+02	2.97711e+00	2.71500e+02
970	2.76494e+02	9.70000e+02	2.97305e+00	2.75000e+02
977	2.80064e+02	9.77000e+02	2.96877e+00	2.78500e+02
984	2.83643e+02	9.84000e+02	2.96442e+00	2.82000e+02
991	2.87255e+02	9.91000e+02	2.95988e+00	2.85500e+02
998	2.90830e+02	9.98000e+02	2.95495e+00	2.89000e+02
1005	2.94348e+02	1.00500e+03	2.94931e+00	2.92500e+02
1012	2.97864e+02	1.01200e+03	2.94294e+00	2.96000e+02
1019	3.01468e+02	1.01900e+03	2.93574e+00	2.99500e+02
1026	3.05061e+02	1.02600e+03	2.92772e+00	3.03000e+02
1033	3.08571e+02	1.03300e+03	2.91912e+00	3.06500e+02
1040	3.12088e+02	1.04000e+03	2.90935e+00	3.10000e+02
1047	3.15561e+02	1.04700e+03	2.89840e+00	3.13500e+02
1054	3.18826e+02	1.05400e+03	2.88575e+00	3.17000e+02
1061	3.21936e+02	1.06100e+03	2.87133e+00	3.20500e+02
1068	3.25375e+02	1.06800e+03	2.85636e+00	3.24000e+02
1075	3.28872e+02	1.07500e+03	2.84195e+00	3.27500e+02
1082	3.32365e+02	1.08200e+03	2.82751e+00	3.31000e+02
1089	3.35850e+02	1.08900e+03	2.81172e+00	3.34500e+02
1096	3.39310e+02	1.09600e+03	2.79365e+00	3.38000e+02
1103	3.42741e+02	1.10300e+03	2.77227e+00	3.41500e+02
1110	3.46208e+02	1.11000e+03	2.74629e+00	3.45000e+02
1117	3.49715e+02	1.11700e+03	2.71385e+00	3.48500e+02
1124	3.53211e+02	1.12400e+03	2.67064e+00	3.52000e+02
1131	3.56666e+02	1.13100e+03	2.61745e+00	3.55500e+02
1138	3.60221e+02	1.13800e+03	2.54949e+00	3.59000e+02
1145	3.63710e+02	1.14500e+03	2.46418e+00	3.62500e+02
1152	3.67221e+02	1.15200e+03	2.36095e+00	3.66000e+02
1159	3.70695e+02	1.15900e+03	2.23875e+00	3.69500e+02
1166	3.74090e+02	1.16600e+03	2.09717e+00	3.73000e+02
1173	3.77554e+02	1.17300e+03	1.94180e+00	3.76500e+02
1180	3.81073e+02	1.18000e+03	1.77484e+00	3.80000e+02
1187	3.84570e+02	1.18700e+03	1.60122e+00	3.83500e+02
1194	3.88079e+02	1.19400e+03	1.42530e+00	3.87000e+02
1201	3.91644e+02	1.20100e+03	1.25026e+00	3.90500e+02
1208	3.95098e+02	1.20800e+03	1.07983e+00	3.94000e+02
1215	3.98620e+02	1.21500e+03	9.12543e-01	3.97500e+02
1222	4.02146e+02	1.22200e+03	7.41550e-01	4.01000e+02
1229	4.05687e+02	1.22900e+03	5.68755e-01	4.04500e+02
1236	4.09250e+02	1.23600e+03	4.12425e-01	4.08000e+02
1243	4.12796e+02	1.24300e+03	2.87294e-01	4.11500e+02
1250	4.16398e+02	1.25000e+03	1.96651e-01	4.15000e+02
1257	4.19998e+02	1.25700e+03	1.32514e-01	4.18500e+02
1264	4.23545e+02	1.26400e+03	8.90851e-02	4.22000e+02
1271	4.27091e+02	1.27100e+03	6.02357e-02	4.25500e+02
1278	4.30620e+02	1.27800e+03	4.17709e-02	4.29000e+02
1285	4.34092e+02	1.28500e+03	2.96726e-02	4.32500e+02
1292	4.37568e+02	1.29200e+03	2.15747e-02	4.36000e+02
1299	4.41067e+02	1.29900e+03	1.59262e-02	4.39500e+02
1306	4.44553e+02	1.30600e+03	1.16913e-02	4.43000e+02
1313	4.48034e+02	1.31300e+03	8.58272e-03	4.46500e+02
1320	4.51498e+02	1.32000e+03	6.48716e-03	4.50000e+02
1327	4.54952e+02	1.32700e+03	5.07907e-03	4.53500e+02
1334	4.58422e+02	1.33400e+03	4.26046e-03	4.57000e+02
1341	4.61862e+02	1.34100e+03	4.02454e-03	4.60500e+02
1348	4.65283e+02	1.34800e+03	3.79031e-03	4.64000e+02
1355	4.68702e+02	1.35500e+03	3.51771e-03	4.67500e+02
1362	4.72158e+02	1.36200e+03	3.36341e-03	4.71000e+02
1369	4.75591e+02	1.36900e+03	3.22375e-03	4.74500e+02
1376	4.79145e+02	1.37600e+03	3.13230e-03	4.78000e+02
1383	4.82590e+02	1.38300e+03	2.94215e-03	4.81500e+02
1390	4.86014e+02	1.39000e+03	2.83078e-03	4.85000e+02
1397	4.89434e+02	1.39700e+03	2.55546e-03	4.88500e+02
1404	4.92850e+02	1.40400e+03	2.40836e-03	4.92000e+02
1411	4.96261e+02	1.41100e+03	2.25833e-03	4.95500e+02
1418	4.99658e+02	1.41800e+03	2.05887e-03	4.99000e+02
1425	5.03056e+02	1.42500e+03	2.08002e-03	5.02500e+02
1432	5.06476e+02	1.43200e+03	1.82974e-03	5.06000e+02
1439	5.09888e+02	1.43900e+03	1.74204e-03	5.09500e+02
1446	5.13323e+02	1.44600e+03	1.59050e-03	5.13000e+02
1453	5.16776e+02	1.45300e+03	1.21533e-03	5.16500e+02
1460	5.20185e+02	1.46000e+03	1.60128e-03	5.20000e+02
1467	5.23588e+02	1.46700e+03	1.50928e-03	5.23500e+02
1474	5.27032e+02	1.47400e+03	1.21380e-03	5.27000e+02
1481	5.30466e+02	1.48100e+03	1.08539e-03	5.30500e+02
1488	5.33911e+02	1.48800e+03	1.14123e-03	5.34000e+02
1495	5.37328e+02	1.49500e+03	1.03269e-03	5.37500e+02
1502	5.40753e+02	1.50200e+03	7.37440e-04	5.41000e+02
1509	5.44185e+02	1.50900e+03	7.61373e-04	5.44500e+02
1516	5.47628e+02	1.51600e+03	7.25647e-04	5.48000e+02
1523	5.51077e+02	1.52300e+03	6.42741e-04	5.51500e+02
1530	5.54543e+02	1.53000e+03	4.19399e-04	5.55000e+02
1537	5.57991e+02	1.53700e+03	2.71386e-04	5.58500e+02
1544	5.61438e+02	1.54400e+03	5.09548e-04	5.62000e+02
1551	5.64896e+02	1.55100e+03	3.34655e-04	5.65500e+02
1558	5.68321e+02	1.55800e+03	2.72330e-04	5.69000e+02
1565	5.71788e+02	1.56500e+03	-5.55652e-05	5.72500e+02
1572	5.75245e+02	1.57200e+03	-1.77116e-04	5.76000e+02
1579	5.78711e+02	1.57900e+03	-1.45560e-04	5.79500e+02
1586	5.82149e+02	1.58600e+03	-1.47915e-04	5.83000e+02
1593	5.85610e+02	1.59300e+03	-2.13054e-04	5.86500e+02
1600	5.89101e+02	1.60000e+03	-3.19581e-04	5.90000e+02
1607	5.92567e+02	1.60700e+03	-3.75645e-04	5.93500e+02
1614	5.96095e+02	1.61400e+03	-4.01161e-04	5.97000e+02
1621	5.99594e+02	1.62100e+03	-5.17163e-04	6.00500e+02
1628	6.03092e+02	1.62800e+03	-6.83419e-04	6.04000e+02
1635	6.06572e+02	1.63500e+03	-6.52737e-04	6.07500e+02
1642	6.10055e+02	1.64200e+03	-7.79688e-04	6.11000e+02
1649	6.13513e+02	1.64900e+03	-6.77934e-04	6.14500e+02
1656	6.16963e+02	1.65600e+03	-4.76335e-04	6.18000e+02
1663	6.20435e+02	1.66300e+03	-6.25815e-04	6.21500e+02
1670	6.23936e+02	1.67000e+03	-6.35768e-04	6.25000e+02
1677	6.27461e+02	1.67700e+03	-7.25926e-04	6.28500e+02
1684	6.30993e+02	1.68400e+03	-7.63649e-04	6.32000e+02
1691	6.34520e+02	1.69100e+03	-7.37501e-04	6.35500e+02
1698	6.38093e+02	1.69800e+03	-7.19926e-04	6.39000e+02
1705	6.41768e+02	1.70500e+03	-7.27663e-04	6.42500e+02
1712	6.45209e+02	1.71200e+03	-7.69286e-04	6.46000e+02
1719	6.48685e+02	1.71900e+03	-9.67642e-04	6.49500e+02
1726	6.52174e+02	1.72600e+03	-1.10121e-03	6.53000e+02
1733	6.55650e+02	1.73300e+03	-5.10181e-04	6.56500e+02
1740	6.59113e+02	1.74000e+03	-4.46314e-04	6.60000e+02
1747	6.62560e+02	1.74700e+03	-7.97645e-04	6.63500e+02
1754	6.65999e+02	1.75400e+03	-8.29835e-04	6.67000e+02
1761	6.69450e+02	1.76100e+03	-6.02445e-04	6.70500e+02
1768	6.72889e+02	1.76800e+03	-7.22943e-04	6.74000e+02
1775	6.76363e+02	1.77500e+03	-8.03940e-04	6.77500e+02
1782	6.79833e+02	1.78200e+03	-7.68088e-04	6.81000e+02
1789	6.83325e+02	1.78900e+03	-1.16338e-03	6.84500e+02
1796	6.86111e+02	1.79600e+03	-7.75195e-04	6.88000e+02
1803	6.88493e+02	1.80300e+03	-4.94621e-04	6.91500e+02
1810	6.90520e+02	1.81000e+03	-6.36791e-04	6.95000e+02
1817	6.92141e+02	1.81700e+03	-7.33375e-04	6.98500e+02
1820	6.92744e+02	1.82000e+03	-6.90921e-04	7.00000e+02