File: Experiments/TGA/TUBS/tga_nonisotherm/tga_dynamic_n2_dyn30_powder_12mg_r2.txt
index	ts	t	weight	tr
[#]	[°C]	[s]	[mg]	[°C]
683	1.30574e+02	6.83000e+02	1.20651e+01	1.31500e+02
689	1.33575e+02	6.89000e+02	1.20644e+01	1.34500e+02
695	1.36574e+02	6.95000e+02	1.20634e+01	1.37500e+02
701	1.39580e+02	7.01000e+02	1.20619e+01	1.40500e+02
707	1.42589e+02	7.07000e+02	1.20600e+01	1.43500e+02
713	1.45602e+02	7.13000e+02	1.20577e+01	1.46500e+02
719	1.48620e+02	7.19000e+02	1.20547e+01	1.49500e+02
725	1.51631e+02	7.25000e+02	1.20510e+01	1.52500e+02
731	1.54639e+02	7.31000e+02	1.20468e+01	1.55500e+02
737	1.57692e+02	7.37000e+02	1.20420e+01	1.58500e+02
743	1.60706e+02	7.43000e+02	1.20368e+01	1.61500e+02
749	1.63748e+02	7.49000e+02	1.20310e+01	1.64500e+02
755	1.66773e+02	7.55000e+02	1.20244e+01	1.67500e+02
761	1.69809e+02	7.61000e+02	1.20167e+01	1.70500e+02
767	1.72847e+02	7.67000e+02	1.20076e+01	1.73500e+02
773	1.75880e+02	7.73000e+02	1.19961e+01	1.76500e+02
779	1.78912e+02	7.79000e+02	1.19817e+01	1.79500e+02
785	1.81955e+02	7.85000e+02	1.19629e+01	1.82500e+02
791	1.84980e+02	7.91000e+02	1.19394e+01	1.85500e+02
797	1.88021e+02	7.97000e+02	1.19100e+01	1.88500e+02
803	1.91049e+02	8.03000e+02	1.18760e+01	1.91500e+02
809	1.94089e+02	8.09000e+02	1.18373e+01	1.94500e+02
815	1.97134e+02	8.15000e+02	1.17958e+01	1.97500e+02
821	2.00199e+02	8.21000e+02	1.17532e+01	2.00500e+02
827	2.03264e+02	8.27000e+02	1.17120e+01	2.03500e+02
833	2.06337e+02	8.33000e+02	1.16749e+01	2.06500e+02
839	2.09416e+02	8.39000e+02	1.16427e+01	2.09500e+02
845	2.12503e+02	8.45000e+02	1.16173e+01	2.12500e+02
851	2.15583e+02	8.51000e+02	1.15977e+01	2.15500e+02
857	2.18672e+02	8.57000e+02	1.15835e+01	2.18500e+02
863	2.21743e+02	8.63000e+02	1.15721e+01	2.21500e+02
869	2.24814e+02	8.69000e+02	1.15625e+01	2.24500e+02
875	2.27853e+02	8.75000e+02	1.15532e+01	2.27500e+02
881	2.30921e+02	8.81000e+02	1.15439e+01	2.30500e+02
887	2.33995e+02	8.87000e+02	1.15344e+01	2.33500e+02
893	2.37049e+02	8.93000e+02	1.15252e+01	2.36500e+02
899	2.40127e+02	8.99000e+02	1.15163e+01	2.39500e+02
905	2.43204e+02	9.05000e+02	1.15078e+01	2.42500e+02
911	2.46258e+02	9.11000e+02	1.14997e+01	2.45500e+02
917	2.49325e+02	9.17000e+02	1.14924e+01	2.48500e+02
923	2.52377e+02	9.23000e+02	1.14857e+01	2.51500e+02
929	2.55447e+02	9.29000e+02	1.14795e+01	2.54500e+02
935	2.58503e+02	9.35000e+02	1.14734e+01	2.57500e+02
941	2.61537e+02	9.41000e+02	1.14676e+01	2.60500e+02
947	2.64595e+02	9.47000e+02	1.14619e+01	2.63500e+02
953	2.67686e+02	9.53000e+02	1.14561e+01	2.66500e+02
959	2.70755e+02	9.59000e+02	1.14497e+01	2.69500e+02
965	2.73820e+02	9.65000e+02	1.14426e+01	2.72500e+02
971	2.76903e+02	9.71000e+02	1.14345e+01	2.75500e+02
977	2.79979e+02	9.77000e+02	1.14251e+01	2.78500e+02
983	2.83051e+02	9.83000e+02	1.14142e+01	2.81500e+02
989	2.86128e+02	9.89000e+02	1.14013e+01	2.84500e+02
995	2.89229e+02	9.95000e+02	1.13859e+01	2.87500e+02
1001	2.92268e+02	1.00100e+03	1.13672e+01	2.90500e+02
1007	2.95312e+02	1.00700e+03	1.13449e+01	2.93500e+02
1013	2.98336e+02	1.01300e+03	1.13182e+01	2.96500e+02
1019	3.01461e+02	1.01900e+03	1.12874e+01	2.99500e+02
1025	3.04634e+02	1.02500e+03	1.12520e+01	3.02500e+02
1031	3.07838e+02	1.03100e+03	1.12127e+01	3.05500e+02
1037	3.10890e+02	1.03700e+03	1.11690e+01	3.08500e+02
1043	3.13886e+02	1.04300e+03	1.11224e+01	3.11500e+02
1049	3.16891e+02	1.04900e+03	1.10733e+01	3.14500e+02
1055	3.20016e+02	1.05500e+03	1.10227e+01	3.17500e+02
1061	3.23076e+02	1.06100e+03	1.09709e+01	3.20500e+02
1067	3.26140e+02	1.06700e+03	1.09174e+01	3.23500e+02
1073	3.29293e+02	1.07300e+03	1.08607e+01	3.26500e+02
1079	3.32345e+02	1.07900e+03	1.07986e+01	3.29500e+02
1085	3.35349e+02	1.08500e+03	1.07270e+01	3.32500e+02
1091	3.38461e+02	1.09100e+03	1.06443e+01	3.35500e+02
1097	3.41555e+02	1.09700e+03	1.05453e+01	3.38500e+02
1103	3.44585e+02	1.10300e+03	1.04287e+01	3.41500e+02
1109	3.47567e+02	1.10900e+03	1.02894e+01	3.44500e+02
1115	3.50601e+02	1.11500e+03	1.01264e+01	3.47500e+02
1121	3.53639e+02	1.12100e+03	9.93618e+00	3.50500e+02
1127	3.56824e+02	1.12700e+03	9.71657e+00	3.53500e+02
1133	3.59715e+02	1.13300e+03	9.46443e+00	3.56500e+02
1139	3.62625e+02	1.13900e+03	9.18179e+00	3.59500e+02
1145	3.65562e+02	1.14500e+03	8.86924e+00	3.62500e+02
1151	3.68453e+02	1.15100e+03	8.52793e+00	3.65500e+02
1157	3.71146e+02	1.15700e+03	8.16337e+00	3.68500e+02
1163	3.73921e+02	1.16300e+03	7.78274e+00	3.71500e+02
1169	3.76834e+02	1.16900e+03	7.38731e+00	3.74500e+02
1175	3.79819e+02	1.17500e+03	6.97650e+00	3.77500e+02
1181	3.82807e+02	1.18100e+03	6.54323e+00	3.80500e+02
1187	3.85706e+02	1.18700e+03	6.09235e+00	3.83500e+02
1193	3.88569e+02	1.19300e+03	5.61838e+00	3.86500e+02
1199	3.91549e+02	1.19900e+03	5.10921e+00	3.89500e+02
1205	3.94549e+02	1.20500e+03	4.57388e+00	3.92500e+02
1211	3.97339e+02	1.21100e+03	4.03147e+00	3.95500e+02
1217	4.00105e+02	1.21700e+03	3.48293e+00	3.98500e+02
1223	4.03001e+02	1.22300e+03	2.93999e+00	4.01500e+02
1229	4.06040e+02	1.22900e+03	2.41665e+00	4.04500e+02
1235	4.09183e+02	1.23500e+03	1.92471e+00	4.07500e+02
1241	4.12425e+02	1.24100e+03	1.49735e+00	4.10500e+02
1247	4.15710e+02	1.24700e+03	1.14468e+00	4.13500e+02
1253	4.18840e+02	1.25300e+03	8.70300e-01	4.16500e+02
1259	4.22497e+02	1.25900e+03	6.60254e-01	4.19500e+02
1265	4.25613e+02	1.26500e+03	5.02775e-01	4.22500e+02
1271	4.28761e+02	1.27100e+03	3.86378e-01	4.25500e+02
1277	4.31914e+02	1.27700e+03	3.07563e-01	4.28500e+02
1283	4.34975e+02	1.28300e+03	2.51302e-01	4.31500e+02
1289	4.37984e+02	1.28900e+03	2.14633e-01	4.34500e+02
1295	4.40979e+02	1.29500e+03	1.89661e-01	4.37500e+02
1301	4.44020e+02	1.30100e+03	1.73778e-01	4.40500e+02
1307	4.47029e+02	1.30700e+03	1.62893e-01	4.43500e+02
1313	4.50042e+02	1.31300e+03	1.56075e-01	4.46500e+02
1319	4.53014e+02	1.31900e+03	1.51409e-01	4.49500e+02
1325	4.55953e+02	1.32500e+03	1.48252e-01	4.52500e+02
1331	4.58872e+02	1.33100e+03	1.46109e-01	4.55500e+02
1337	4.61798e+02	1.33700e+03	1.45061e-01	4.58500e+02
1343	4.64713e+02	1.34300e+03	1.44732e-01	4.61500e+02
1349	4.67616e+02	1.34900e+03	1.44440e-01	4.64500e+02
1355	4.70471e+02	1.35500e+03	1.44130e-01	4.67500e+02
1361	4.73397e+02	1.36100e+03	1.43964e-01	4.70500e+02
1367	4.76322e+02	1.36700e+03	1.43833e-01	4.73500e+02
1373	4.79132e+02	1.37300e+03	1.43566e-01	4.76500e+02
1379	4.81920e+02	1.37900e+03	1.43450e-01	4.79500e+02
1385	4.84756e+02	1.38500e+03	1.43425e-01	4.82500e+02
1391	4.87957e+02	1.39100e+03	1.43349e-01	4.85500e+02
1397	4.90972e+02	1.39700e+03	1.43259e-01	4.88500e+02
1403	4.93979e+02	1.40300e+03	1.43061e-01	4.91500e+02
1409	4.97181e+02	1.40900e+03	1.42686e-01	4.94500e+02
1415	4.99826e+02	1.41500e+03	1.42669e-01	4.97500e+02
1421	5.02814e+02	1.42100e+03	1.42704e-01	5.00500e+02
1427	5.05825e+02	1.42700e+03	1.42567e-01	5.03500e+02
1433	5.08877e+02	1.43300e+03	1.42523e-01	5.06500e+02
1439	5.11900e+02	1.43900e+03	1.42556e-01	5.09500e+02
1445	5.14900e+02	1.44500e+03	1.42382e-01	5.12500e+02
1451	5.18564e+02	1.45100e+03	1.42103e-01	5.15500e+02
1457	5.21305e+02	1.45700e+03	1.42253e-01	5.18500e+02
1463	5.23987e+02	1.46300e+03	1.42620e-01	5.21500e+02
1469	5.26744e+02	1.46900e+03	1.42390e-01	5.24500e+02
1475	5.29631e+02	1.47500e+03	1.42220e-01	5.27500e+02
1481	5.32624e+02	1.48100e+03	1.42156e-01	5.30500e+02
1487	5.35767e+02	1.48700e+03	1.42145e-01	5.33500e+02
1493	5.38335e+02	1.49300e+03	1.41972e-01	5.36500e+02
1499	5.41217e+02	1.49900e+03	1.41995e-01	5.39500e+02
1505	5.44172e+02	1.50500e+03	1.42041e-01	5.42500e+02
1511	5.46976e+02	1.51100e+03	1.42034e-01	5.45500e+02
1517	5.49957e+02	1.51700e+03	1.42074e-01	5.48500e+02
1523	5.53143e+02	1.52300e+03	1.41959e-01	5.51500e+02
1529	5.56717e+02	1.52900e+03	1.41827e-01	5.54500e+02
1535	5.59758e+02	1.53500e+03	1.41572e-01	5.57500e+02
1541	5.63014e+02	1.54100e+03	1.41911e-01	5.60500e+02
1547	5.66371e+02	1.54700e+03	1.41966e-01	5.63500e+02
1553	5.70682e+02	1.55300e+03	1.41877e-01	5.66500e+02
1559	5.73155e+02	1.55900e+03	1.41945e-01	5.69500e+02
1565	5.75940e+02	1.56500e+03	1.41845e-01	5.72500e+02
1571	5.78867e+02	1.57100e+03	1.41762e-01	5.75500e+02
1577	5.81765e+02	1.57700e+03	1.41742e-01	5.78500e+02
1583	5.84684e+02	1.58300e+03	1.41776e-01	5.81500e+02
1589	5.87689e+02	1.58900e+03	1.41729e-01	5.84500e+02
1595	5.90802e+02	1.59500e+03	1.41743e-01	5.87500e+02
1601	5.92426e+02	1.60100e+03	1.41776e-01	5.90500e+02
1607	5.95152e+02	1.60700e+03	1.41744e-01	5.93500e+02
1613	5.98027e+02	1.61300e+03	1.41656e-01	5.96500e+02
1619	6.00927e+02	1.61900e+03	1.41601e-01	5.99500e+02
1625	6.03846e+02	1.62500e+03	1.41502e-01	6.02500e+02
1631	6.06735e+02	1.63100e+03	1.41473e-01	6.05500e+02
1637	6.09643e+02	1.63700e+03	1.41431e-01	6.08500e+02
1643	6.12550e+02	1.64300e+03	1.41455e-01	6.11500e+02
1649	6.15476e+02	1.64900e+03	1.41535e-01	6.14500e+02
1655	6.18420e+02	1.65500e+03	1.41493e-01	6.17500e+02
1661	6.21335e+02	1.66100e+03	1.41544e-01	6.20500e+02
1667	6.24265e+02	1.66700e+03	1.41541e-01	6.23500e+02
1673	6.27231e+02	1.67300e+03	1.41573e-01	6.26500e+02
1679	6.30164e+02	1.67900e+03	1.41498e-01	6.29500e+02
1685	6.33120e+02	1.68500e+03	1.41444e-01	6.32500e+02
1691	6.36081e+02	1.69100e+03	1.41480e-01	6.35500e+02
1697	6.39071e+02	1.69700e+03	1.41514e-01	6.38500e+02
1703	6.42026e+02	1.70300e+03	1.41569e-01	6.41500e+02
1709	6.45042e+02	1.70900e+03	1.41424e-01	6.44500e+02
1715	6.48082e+02	1.71500e+03	1.41271e-01	6.47500e+02
1721	6.51117e+02	1.72100e+03	1.41002e-01	6.50500e+02
1727	6.54096e+02	1.72700e+03	1.41016e-01	6.53500e+02
1733	6.57055e+02	1.73300e+03	1.41578e-01	6.56500e+02
1739	6.60024e+02	1.73900e+03	1.41637e-01	6.59500e+02
1745	6.62985e+02	1.74500e+03	1.41411e-01	6.62500e+02
1751	6.65962e+02	1.75100e+03	1.41166e-01	6.65500e+02
1757	6.68924e+02	1.75700e+03	1.41251e-01	6.68500e+02
1763	6.71895e+02	1.76300e+03	1.41447e-01	6.71500e+02
1769	6.74883e+02	1.76900e+03	1.41445e-01	6.74500e+02
1775	6.77876e+02	1.77500e+03	1.41396e-01	6.77500e+02
1781	6.80855e+02	1.78100e+03	1.41323e-01	6.80500e+02
1787	6.83801e+02	1.78700e+03	1.41211e-01	6.83500e+02
1793	6.86780e+02	1.79300e+03	1.41082e-01	6.86500e+02
1799	6.88628e+02	1.79900e+03	1.41468e-01	6.89500e+02
1805	6.90479e+02	1.80500e+03	1.41676e-01	6.92500e+02
1811	6.91993e+02	1.81100e+03	1.41535e-01	6.95500e+02
1817	6.93239e+02	1.81700e+03	1.41408e-01	6.98500e+02
1820	6.93798e+02	1.82000e+03	1.41497e-01	7.00000e+02