File: Experiments/TGA/TUBS/tga_nonisotherm/tga_dynamic_n2_dyn20_powder_1mg_r2.txt
index	ts	t	weight	tr
[#]	[°C]	[s]	[mg]	[°C]
723	1.31453e+02	7.23000e+02	1.02512e+00	1.31000e+02
733	1.34814e+02	7.33000e+02	1.02492e+00	1.34333e+02
743	1.38182e+02	7.43000e+02	1.02479e+00	1.37667e+02
753	1.41554e+02	7.53000e+02	1.02454e+00	1.41000e+02
763	1.44932e+02	7.63000e+02	1.02434e+00	1.44333e+02
773	1.48300e+02	7.73000e+02	1.02403e+00	1.47667e+02
783	1.51686e+02	7.83000e+02	1.02350e+00	1.51000e+02
793	1.55045e+02	7.93000e+02	1.02293e+00	1.54333e+02
803	1.58415e+02	8.03000e+02	1.02242e+00	1.57667e+02
813	1.61795e+02	8.13000e+02	1.02186e+00	1.61000e+02
823	1.65180e+02	8.23000e+02	1.02128e+00	1.64333e+02
833	1.68561e+02	8.33000e+02	1.02057e+00	1.67667e+02
843	1.71933e+02	8.43000e+02	1.01949e+00	1.71000e+02
853	1.75308e+02	8.53000e+02	1.01803e+00	1.74333e+02
863	1.78684e+02	8.63000e+02	1.01607e+00	1.77667e+02
873	1.82044e+02	8.73000e+02	1.01332e+00	1.81000e+02
883	1.85420e+02	8.83000e+02	1.01003e+00	1.84333e+02
893	1.88801e+02	8.93000e+02	1.00637e+00	1.87667e+02
903	1.92190e+02	9.03000e+02	1.00255e+00	1.91000e+02
913	1.95591e+02	9.13000e+02	9.98954e-01	1.94333e+02
923	1.98980e+02	9.23000e+02	9.95841e-01	1.97667e+02
933	2.02479e+02	9.33000e+02	9.93211e-01	2.01000e+02
943	2.05814e+02	9.43000e+02	9.91260e-01	2.04333e+02
953	2.09165e+02	9.53000e+02	9.89890e-01	2.07667e+02
963	2.12502e+02	9.63000e+02	9.88993e-01	2.11000e+02
973	2.15864e+02	9.73000e+02	9.88122e-01	2.14333e+02
983	2.19241e+02	9.83000e+02	9.87578e-01	2.17667e+02
993	2.22658e+02	9.93000e+02	9.86833e-01	2.21000e+02
1003	2.26030e+02	1.00300e+03	9.86023e-01	2.24333e+02
1013	2.29414e+02	1.01300e+03	9.85014e-01	2.27667e+02
1023	2.32776e+02	1.02300e+03	9.84366e-01	2.31000e+02
1033	2.36155e+02	1.03300e+03	9.83580e-01	2.34333e+02
1043	2.39539e+02	1.04300e+03	9.83054e-01	2.37667e+02
1053	2.42885e+02	1.05300e+03	9.82568e-01	2.41000e+02
1063	2.46253e+02	1.06300e+03	9.82113e-01	2.44333e+02
1073	2.49566e+02	1.07300e+03	9.81765e-01	2.47667e+02
1083	2.52911e+02	1.08300e+03	9.81238e-01	2.51000e+02
1093	2.56273e+02	1.09300e+03	9.80755e-01	2.54333e+02
1103	2.59617e+02	1.10300e+03	9.80378e-01	2.57667e+02
1113	2.62994e+02	1.11300e+03	9.79898e-01	2.61000e+02
1123	2.66354e+02	1.12300e+03	9.79326e-01	2.64333e+02
1133	2.69701e+02	1.13300e+03	9.78878e-01	2.67667e+02
1143	2.73055e+02	1.14300e+03	9.78328e-01	2.71000e+02
1153	2.76421e+02	1.15300e+03	9.77514e-01	2.74333e+02
1163	2.79776e+02	1.16300e+03	9.76401e-01	2.77667e+02
1173	2.83085e+02	1.17300e+03	9.74996e-01	2.81000e+02
1183	2.86416e+02	1.18300e+03	9.73513e-01	2.84333e+02
1193	2.89725e+02	1.19300e+03	9.71346e-01	2.87667e+02
1203	2.93007e+02	1.20300e+03	9.68779e-01	2.91000e+02
1213	2.96344e+02	1.21300e+03	9.65727e-01	2.94333e+02
1223	2.99716e+02	1.22300e+03	9.62114e-01	2.97667e+02
1233	3.03205e+02	1.23300e+03	9.57926e-01	3.01000e+02
1243	3.06609e+02	1.24300e+03	9.53157e-01	3.04333e+02
1253	3.10062e+02	1.25300e+03	9.48156e-01	3.07667e+02
1263	3.13439e+02	1.26300e+03	9.42976e-01	3.11000e+02
1273	3.16810e+02	1.27300e+03	9.37690e-01	3.14333e+02
1283	3.20169e+02	1.28300e+03	9.32269e-01	3.17667e+02
1293	3.23610e+02	1.29300e+03	9.26629e-01	3.21000e+02
1303	3.26941e+02	1.30300e+03	9.20379e-01	3.24333e+02
1313	3.30280e+02	1.31300e+03	9.12937e-01	3.27667e+02
1323	3.33585e+02	1.32300e+03	9.03593e-01	3.31000e+02
1333	3.36888e+02	1.33300e+03	8.92172e-01	3.34333e+02
1343	3.40202e+02	1.34300e+03	8.78232e-01	3.37667e+02
1353	3.43644e+02	1.35300e+03	8.60692e-01	3.41000e+02
1363	3.47390e+02	1.36300e+03	8.39355e-01	3.44333e+02
1373	3.50863e+02	1.37300e+03	8.13451e-01	3.47667e+02
1383	3.54332e+02	1.38300e+03	7.82898e-01	3.51000e+02
1393	3.57684e+02	1.39300e+03	7.47342e-01	3.54333e+02
1403	3.61176e+02	1.40300e+03	7.06956e-01	3.57667e+02
1413	3.64483e+02	1.41300e+03	6.62183e-01	3.61000e+02
1423	3.67824e+02	1.42300e+03	6.13557e-01	3.64333e+02
1433	3.71205e+02	1.43300e+03	5.61120e-01	3.67667e+02
1443	3.74616e+02	1.44300e+03	5.06404e-01	3.71000e+02
1453	3.78003e+02	1.45300e+03	4.50812e-01	3.74333e+02
1463	3.81338e+02	1.46300e+03	3.94432e-01	3.77667e+02
1473	3.84598e+02	1.47300e+03	3.39485e-01	3.81000e+02
1483	3.87876e+02	1.48300e+03	2.87618e-01	3.84333e+02
1493	3.91201e+02	1.49300e+03	2.40244e-01	3.87667e+02
1503	3.94776e+02	1.50300e+03	1.98150e-01	3.91000e+02
1513	3.98416e+02	1.51300e+03	1.61956e-01	3.94333e+02
1523	4.01842e+02	1.52300e+03	1.31661e-01	3.97667e+02
1533	4.05436e+02	1.53300e+03	1.06927e-01	4.01000e+02
1543	4.09046e+02	1.54300e+03	8.71658e-02	4.04333e+02
1553	4.12384e+02	1.55300e+03	7.19374e-02	4.07667e+02
1563	4.15608e+02	1.56300e+03	6.04017e-02	4.11000e+02
1573	4.18842e+02	1.57300e+03	5.23659e-02	4.14333e+02
1583	4.21779e+02	1.58300e+03	4.64896e-02	4.17667e+02
1593	4.24790e+02	1.59300e+03	4.23836e-02	4.21000e+02
1603	4.27837e+02	1.60300e+03	3.95394e-02	4.24333e+02
1613	4.30770e+02	1.61300e+03	3.77468e-02	4.27667e+02
1623	4.33962e+02	1.62300e+03	3.62872e-02	4.31000e+02
1633	4.37191e+02	1.63300e+03	3.53729e-02	4.34333e+02
1643	4.40454e+02	1.64300e+03	3.49850e-02	4.37667e+02
1653	4.43638e+02	1.65300e+03	3.46548e-02	4.41000e+02
1663	4.46891e+02	1.66300e+03	3.45141e-02	4.44333e+02
1673	4.50123e+02	1.67300e+03	3.43246e-02	4.47667e+02
1683	4.53370e+02	1.68300e+03	3.42842e-02	4.51000e+02
1693	4.56423e+02	1.69300e+03	3.42240e-02	4.54333e+02
1703	4.59584e+02	1.70300e+03	3.42062e-02	4.57667e+02
1713	4.62826e+02	1.71300e+03	3.41305e-02	4.61000e+02
1723	4.66096e+02	1.72300e+03	3.40060e-02	4.64333e+02
1733	4.69369e+02	1.73300e+03	3.40481e-02	4.67667e+02
1743	4.72606e+02	1.74300e+03	3.39220e-02	4.71000e+02
1753	4.75885e+02	1.75300e+03	3.39440e-02	4.74333e+02
1763	4.79150e+02	1.76300e+03	3.39058e-02	4.77667e+02
1773	4.82436e+02	1.77300e+03	3.38043e-02	4.81000e+02
1783	4.85711e+02	1.78300e+03	3.38957e-02	4.84333e+02
1793	4.88967e+02	1.79300e+03	3.38633e-02	4.87667e+02
1803	4.92240e+02	1.80300e+03	3.39060e-02	4.91000e+02
1813	4.95505e+02	1.81300e+03	3.38546e-02	4.94333e+02
1823	4.98789e+02	1.82300e+03	3.38771e-02	4.97667e+02
1833	5.02110e+02	1.83300e+03	3.38120e-02	5.01000e+02
1843	5.05355e+02	1.84300e+03	3.36653e-02	5.04333e+02
1853	5.08613e+02	1.85300e+03	3.36511e-02	5.07667e+02
1863	5.11874e+02	1.86300e+03	3.36232e-02	5.11000e+02
1873	5.15143e+02	1.87300e+03	3.36235e-02	5.14333e+02
1883	5.18433e+02	1.88300e+03	3.36250e-02	5.17667e+02
1893	5.21706e+02	1.89300e+03	3.37150e-02	5.21000e+02
1903	5.25030e+02	1.90300e+03	3.35610e-02	5.24333e+02
1913	5.28374e+02	1.91300e+03	3.36572e-02	5.27667e+02
1923	5.31723e+02	1.92300e+03	3.35222e-02	5.31000e+02
1933	5.35054e+02	1.93300e+03	3.36308e-02	5.34333e+02
1943	5.38395e+02	1.94300e+03	3.37515e-02	5.37667e+02
1953	5.41728e+02	1.95300e+03	3.36807e-02	5.41000e+02
1963	5.45086e+02	1.96300e+03	3.36985e-02	5.44333e+02
1973	5.48408e+02	1.97300e+03	3.37851e-02	5.47667e+02
1983	5.51705e+02	1.98300e+03	3.37409e-02	5.51000e+02
1993	5.55075e+02	1.99300e+03	3.36596e-02	5.54333e+02
2003	5.58372e+02	2.00300e+03	3.36285e-02	5.57667e+02
2013	5.61703e+02	2.01300e+03	3.36983e-02	5.61000e+02
2023	5.65030e+02	2.02300e+03	3.35395e-02	5.64333e+02
2033	5.68371e+02	2.03300e+03	3.37737e-02	5.67667e+02
2043	5.71751e+02	2.04300e+03	3.37511e-02	5.71000e+02
2053	5.75075e+02	2.05300e+03	3.37042e-02	5.74333e+02
2063	5.78406e+02	2.06300e+03	3.36455e-02	5.77667e+02
2073	5.81760e+02	2.07300e+03	3.37158e-02	5.81000e+02
2083	5.85063e+02	2.08300e+03	3.35425e-02	5.84333e+02
2093	5.88367e+02	2.09300e+03	3.35712e-02	5.87667e+02
2103	5.91667e+02	2.10300e+03	3.37015e-02	5.91000e+02
2113	5.94997e+02	2.11300e+03	3.36228e-02	5.94333e+02
2123	5.98310e+02	2.12300e+03	3.37072e-02	5.97667e+02
2133	6.01640e+02	2.13300e+03	3.38096e-02	6.01000e+02
2143	6.04966e+02	2.14300e+03	3.39649e-02	6.04333e+02
2153	6.08303e+02	2.15300e+03	3.38328e-02	6.07667e+02
2163	6.11620e+02	2.16300e+03	3.38991e-02	6.11000e+02
2173	6.14959e+02	2.17300e+03	3.39207e-02	6.14333e+02
2183	6.18342e+02	2.18300e+03	3.40164e-02	6.17667e+02
2193	6.21715e+02	2.19300e+03	3.37686e-02	6.21000e+02
2203	6.24979e+02	2.20300e+03	3.38443e-02	6.24333e+02
2213	6.28272e+02	2.21300e+03	3.38206e-02	6.27667e+02
2223	6.31581e+02	2.22300e+03	3.37962e-02	6.31000e+02
2233	6.34928e+02	2.23300e+03	3.39373e-02	6.34333e+02
2243	6.38285e+02	2.24300e+03	3.37209e-02	6.37667e+02
2253	6.41650e+02	2.25300e+03	3.37795e-02	6.41000e+02
2263	6.44983e+02	2.26300e+03	3.38091e-02	6.44333e+02
2273	6.48319e+02	2.27300e+03	3.38386e-02	6.47667e+02
2283	6.51634e+02	2.28300e+03	3.38208e-02	6.51000e+02
2293	6.54942e+02	2.29300e+03	3.37445e-02	6.54333e+02
2303	6.58253e+02	2.30300e+03	3.37313e-02	6.57667e+02
2313	6.61576e+02	2.31300e+03	3.38664e-02	6.61000e+02
2323	6.64918e+02	2.32300e+03	3.39230e-02	6.64333e+02
2333	6.68275e+02	2.33300e+03	3.38888e-02	6.67667e+02
2343	6.71615e+02	2.34300e+03	3.37881e-02	6.71000e+02
2353	6.74977e+02	2.35300e+03	3.37111e-02	6.74333e+02
2363	6.78302e+02	2.36300e+03	3.37207e-02	6.77667e+02
2373	6.81636e+02	2.37300e+03	3.37703e-02	6.81000e+02
2383	6.84960e+02	2.38300e+03	3.37143e-02	6.84333e+02
2393	6.88321e+02	2.39300e+03	3.36306e-02	6.87667e+02
2403	6.91648e+02	2.40300e+03	3.36505e-02	6.91000e+02
2413	6.93925e+02	2.41300e+03	3.37270e-02	6.94333e+02
2423	6.95805e+02	2.42300e+03	3.36920e-02	6.97667e+02
2430	6.96799e+02	2.43000e+03	3.37196e-02	7.00000e+02