File: Experiments/TGA/TUBS/tga_nonisotherm/tga_dynamic_n2_dyn30_powder_1mg_r3.txt
index	ts	t	weight	tr
[#]	[°C]	[s]	[mg]	[°C]
683	1.31157e+02	6.83000e+02	9.90637e-01	1.31500e+02
689	1.34159e+02	6.89000e+02	9.90563e-01	1.34500e+02
695	1.37179e+02	6.95000e+02	9.90431e-01	1.37500e+02
701	1.40188e+02	7.01000e+02	9.90135e-01	1.40500e+02
707	1.43185e+02	7.07000e+02	9.89984e-01	1.43500e+02
713	1.46199e+02	7.13000e+02	9.89828e-01	1.46500e+02
719	1.49218e+02	7.19000e+02	9.89509e-01	1.49500e+02
725	1.52252e+02	7.25000e+02	9.89115e-01	1.52500e+02
731	1.55267e+02	7.31000e+02	9.88735e-01	1.55500e+02
737	1.58262e+02	7.37000e+02	9.88138e-01	1.58500e+02
743	1.61297e+02	7.43000e+02	9.87637e-01	1.61500e+02
749	1.64325e+02	7.49000e+02	9.87299e-01	1.64500e+02
755	1.67345e+02	7.55000e+02	9.86699e-01	1.67500e+02
761	1.70359e+02	7.61000e+02	9.85841e-01	1.70500e+02
767	1.73402e+02	7.67000e+02	9.85004e-01	1.73500e+02
773	1.76431e+02	7.73000e+02	9.84087e-01	1.76500e+02
779	1.79456e+02	7.79000e+02	9.82975e-01	1.79500e+02
785	1.82513e+02	7.85000e+02	9.81526e-01	1.82500e+02
791	1.85559e+02	7.91000e+02	9.79652e-01	1.85500e+02
797	1.88593e+02	7.97000e+02	9.77157e-01	1.88500e+02
803	1.91636e+02	8.03000e+02	9.74443e-01	1.91500e+02
809	1.94683e+02	8.09000e+02	9.71595e-01	1.94500e+02
815	1.97732e+02	8.15000e+02	9.68670e-01	1.97500e+02
821	2.00790e+02	8.21000e+02	9.65857e-01	2.00500e+02
827	2.03841e+02	8.27000e+02	9.63198e-01	2.03500e+02
833	2.06896e+02	8.33000e+02	9.61015e-01	2.06500e+02
839	2.09953e+02	8.39000e+02	9.59246e-01	2.09500e+02
845	2.13017e+02	8.45000e+02	9.57820e-01	2.12500e+02
851	2.16069e+02	8.51000e+02	9.56811e-01	2.15500e+02
857	2.19126e+02	8.57000e+02	9.56117e-01	2.18500e+02
863	2.22184e+02	8.63000e+02	9.55463e-01	2.21500e+02
869	2.25229e+02	8.69000e+02	9.54929e-01	2.24500e+02
875	2.28276e+02	8.75000e+02	9.54309e-01	2.27500e+02
881	2.31333e+02	8.81000e+02	9.53567e-01	2.30500e+02
887	2.34379e+02	8.87000e+02	9.52743e-01	2.33500e+02
893	2.37423e+02	8.93000e+02	9.51986e-01	2.36500e+02
899	2.40479e+02	8.99000e+02	9.51258e-01	2.39500e+02
905	2.43543e+02	9.05000e+02	9.50529e-01	2.42500e+02
911	2.46590e+02	9.11000e+02	9.49797e-01	2.45500e+02
917	2.49640e+02	9.17000e+02	9.49020e-01	2.48500e+02
923	2.52701e+02	9.23000e+02	9.48446e-01	2.51500e+02
929	2.55748e+02	9.29000e+02	9.47968e-01	2.54500e+02
935	2.58796e+02	9.35000e+02	9.47467e-01	2.57500e+02
941	2.61839e+02	9.41000e+02	9.46916e-01	2.60500e+02
947	2.64897e+02	9.47000e+02	9.46458e-01	2.63500e+02
953	2.67974e+02	9.53000e+02	9.46156e-01	2.66500e+02
959	2.71036e+02	9.59000e+02	9.45729e-01	2.69500e+02
965	2.74111e+02	9.65000e+02	9.45227e-01	2.72500e+02
971	2.77164e+02	9.71000e+02	9.44517e-01	2.75500e+02
977	2.80197e+02	9.77000e+02	9.43647e-01	2.78500e+02
983	2.83257e+02	9.83000e+02	9.42738e-01	2.81500e+02
989	2.86293e+02	9.89000e+02	9.41896e-01	2.84500e+02
995	2.89322e+02	9.95000e+02	9.40889e-01	2.87500e+02
1001	2.92347e+02	1.00100e+03	9.39398e-01	2.90500e+02
1007	2.95402e+02	1.00700e+03	9.37396e-01	2.93500e+02
1013	2.98430e+02	1.01300e+03	9.35027e-01	2.96500e+02
1019	3.01453e+02	1.01900e+03	9.32437e-01	2.99500e+02
1025	3.04477e+02	1.02500e+03	9.29389e-01	3.02500e+02
1031	3.07522e+02	1.03100e+03	9.26029e-01	3.05500e+02
1037	3.10564e+02	1.03700e+03	9.22303e-01	3.08500e+02
1043	3.13589e+02	1.04300e+03	9.18245e-01	3.11500e+02
1049	3.16623e+02	1.04900e+03	9.13812e-01	3.14500e+02
1055	3.19639e+02	1.05500e+03	9.09400e-01	3.17500e+02
1061	3.22657e+02	1.06100e+03	9.04999e-01	3.20500e+02
1067	3.25643e+02	1.06700e+03	9.00537e-01	3.23500e+02
1073	3.28678e+02	1.07300e+03	8.95894e-01	3.26500e+02
1079	3.31702e+02	1.07900e+03	8.90793e-01	3.29500e+02
1085	3.34722e+02	1.08500e+03	8.84704e-01	3.32500e+02
1091	3.37697e+02	1.09100e+03	8.77611e-01	3.35500e+02
1097	3.40686e+02	1.09700e+03	8.68896e-01	3.38500e+02
1103	3.43696e+02	1.10300e+03	8.58475e-01	3.41500e+02
1109	3.46703e+02	1.10900e+03	8.45741e-01	3.44500e+02
1115	3.49731e+02	1.11500e+03	8.30585e-01	3.47500e+02
1121	3.52756e+02	1.12100e+03	8.12156e-01	3.50500e+02
1127	3.55756e+02	1.12700e+03	7.90364e-01	3.53500e+02
1133	3.58745e+02	1.13300e+03	7.65004e-01	3.56500e+02
1139	3.61734e+02	1.13900e+03	7.36374e-01	3.59500e+02
1145	3.64723e+02	1.14500e+03	7.03761e-01	3.62500e+02
1151	3.67694e+02	1.15100e+03	6.68145e-01	3.65500e+02
1157	3.70674e+02	1.15700e+03	6.29234e-01	3.68500e+02
1163	3.73648e+02	1.16300e+03	5.87379e-01	3.71500e+02
1169	3.76613e+02	1.16900e+03	5.42785e-01	3.74500e+02
1175	3.79628e+02	1.17500e+03	4.96502e-01	3.77500e+02
1181	3.82617e+02	1.18100e+03	4.49014e-01	3.80500e+02
1187	3.85623e+02	1.18700e+03	4.01361e-01	3.83500e+02
1193	3.88635e+02	1.19300e+03	3.54289e-01	3.86500e+02
1199	3.91659e+02	1.19900e+03	3.08714e-01	3.89500e+02
1205	3.94715e+02	1.20500e+03	2.65998e-01	3.92500e+02
1211	3.97735e+02	1.21100e+03	2.26530e-01	3.95500e+02
1217	4.00763e+02	1.21700e+03	1.91581e-01	3.98500e+02
1223	4.03769e+02	1.22300e+03	1.60851e-01	4.01500e+02
1229	4.06740e+02	1.22900e+03	1.34719e-01	4.04500e+02
1235	4.09924e+02	1.23500e+03	1.12588e-01	4.07500e+02
1241	4.13115e+02	1.24100e+03	9.45743e-02	4.10500e+02
1247	4.16149e+02	1.24700e+03	7.98890e-02	4.13500e+02
1253	4.19064e+02	1.25300e+03	6.85196e-02	4.16500e+02
1259	4.22000e+02	1.25900e+03	5.96133e-02	4.19500e+02
1265	4.24899e+02	1.26500e+03	5.29110e-02	4.22500e+02
1271	4.27895e+02	1.27100e+03	4.78946e-02	4.25500e+02
1277	4.30829e+02	1.27700e+03	4.43026e-02	4.28500e+02
1283	4.33733e+02	1.28300e+03	4.15891e-02	4.31500e+02
1289	4.36421e+02	1.28900e+03	3.97450e-02	4.34500e+02
1295	4.39361e+02	1.29500e+03	3.83519e-02	4.37500e+02
1301	4.42302e+02	1.30100e+03	3.72338e-02	4.40500e+02
1307	4.45259e+02	1.30700e+03	3.66248e-02	4.43500e+02
1313	4.48275e+02	1.31300e+03	3.62890e-02	4.46500e+02
1319	4.51230e+02	1.31900e+03	3.60363e-02	4.49500e+02
1325	4.54126e+02	1.32500e+03	3.58580e-02	4.52500e+02
1331	4.57040e+02	1.33100e+03	3.56550e-02	4.55500e+02
1337	4.59997e+02	1.33700e+03	3.55828e-02	4.58500e+02
1343	4.62910e+02	1.34300e+03	3.56176e-02	4.61500e+02
1349	4.65840e+02	1.34900e+03	3.55531e-02	4.64500e+02
1355	4.68724e+02	1.35500e+03	3.54208e-02	4.67500e+02
1361	4.71667e+02	1.36100e+03	3.53251e-02	4.70500e+02
1367	4.74602e+02	1.36700e+03	3.53272e-02	4.73500e+02
1373	4.77544e+02	1.37300e+03	3.53145e-02	4.76500e+02
1379	4.80494e+02	1.37900e+03	3.53018e-02	4.79500e+02
1385	4.83437e+02	1.38500e+03	3.53183e-02	4.82500e+02
1391	4.86362e+02	1.39100e+03	3.53064e-02	4.85500e+02
1397	4.89307e+02	1.39700e+03	3.53118e-02	4.88500e+02
1403	4.92234e+02	1.40300e+03	3.52240e-02	4.91500e+02
1409	4.95183e+02	1.40900e+03	3.50392e-02	4.94500e+02
1415	4.98097e+02	1.41500e+03	3.50983e-02	4.97500e+02
1421	5.01051e+02	1.42100e+03	3.50936e-02	5.00500e+02
1427	5.03990e+02	1.42700e+03	3.50538e-02	5.03500e+02
1433	5.06935e+02	1.43300e+03	3.50715e-02	5.06500e+02
1439	5.09905e+02	1.43900e+03	3.50976e-02	5.09500e+02
1445	5.12879e+02	1.44500e+03	3.49102e-02	5.12500e+02
1451	5.15857e+02	1.45100e+03	3.46627e-02	5.15500e+02
1457	5.18789e+02	1.45700e+03	3.48696e-02	5.18500e+02
1463	5.21733e+02	1.46300e+03	3.52007e-02	5.21500e+02
1469	5.24708e+02	1.46900e+03	3.50881e-02	5.24500e+02
1475	5.27717e+02	1.47500e+03	3.50800e-02	5.27500e+02
1481	5.30737e+02	1.48100e+03	3.50631e-02	5.30500e+02
1487	5.33727e+02	1.48700e+03	3.50260e-02	5.33500e+02
1493	5.36732e+02	1.49300e+03	3.49770e-02	5.36500e+02
1499	5.39714e+02	1.49900e+03	3.48998e-02	5.39500e+02
1505	5.42687e+02	1.50500e+03	3.48803e-02	5.42500e+02
1511	5.45689e+02	1.51100e+03	3.49763e-02	5.45500e+02
1517	5.48590e+02	1.51700e+03	3.49866e-02	5.48500e+02
1523	5.51580e+02	1.52300e+03	3.49264e-02	5.51500e+02
1529	5.54582e+02	1.52900e+03	3.46618e-02	5.54500e+02
1535	5.57809e+02	1.53500e+03	3.42981e-02	5.57500e+02
1541	5.60792e+02	1.54100e+03	3.45603e-02	5.60500e+02
1547	5.63400e+02	1.54700e+03	3.46043e-02	5.63500e+02
1553	5.66211e+02	1.55300e+03	3.45073e-02	5.66500e+02
1559	5.69098e+02	1.55900e+03	3.45751e-02	5.69500e+02
1565	5.72019e+02	1.56500e+03	3.44951e-02	5.72500e+02
1571	5.74977e+02	1.57100e+03	3.44411e-02	5.75500e+02
1577	5.77932e+02	1.57700e+03	3.45221e-02	5.78500e+02
1583	5.80871e+02	1.58300e+03	3.45785e-02	5.81500e+02
1589	5.83819e+02	1.58900e+03	3.45350e-02	5.84500e+02
1595	5.86754e+02	1.59500e+03	3.45452e-02	5.87500e+02
1601	5.89715e+02	1.60100e+03	3.45683e-02	5.90500e+02
1607	5.92644e+02	1.60700e+03	3.44723e-02	5.93500e+02
1613	5.95591e+02	1.61300e+03	3.45108e-02	5.96500e+02
1619	5.98540e+02	1.61900e+03	3.45289e-02	5.99500e+02
1625	6.01491e+02	1.62500e+03	3.44552e-02	6.02500e+02
1631	6.04477e+02	1.63100e+03	3.44883e-02	6.05500e+02
1637	6.07470e+02	1.63700e+03	3.44649e-02	6.08500e+02
1643	6.10471e+02	1.64300e+03	3.44053e-02	6.11500e+02
1649	6.13505e+02	1.64900e+03	3.43753e-02	6.14500e+02
1655	6.16509e+02	1.65500e+03	3.44255e-02	6.17500e+02
1661	6.19518e+02	1.66100e+03	3.44113e-02	6.20500e+02
1667	6.22525e+02	1.66700e+03	3.43776e-02	6.23500e+02
1673	6.25629e+02	1.67300e+03	3.44481e-02	6.26500e+02
1679	6.28702e+02	1.67900e+03	3.44462e-02	6.29500e+02
1685	6.31957e+02	1.68500e+03	3.43678e-02	6.32500e+02
1691	6.35885e+02	1.69100e+03	3.43473e-02	6.35500e+02
1697	6.40192e+02	1.69700e+03	3.44130e-02	6.38500e+02
1703	6.42940e+02	1.70300e+03	3.44654e-02	6.41500e+02
1709	6.45813e+02	1.70900e+03	3.43862e-02	6.44500e+02
1715	6.48628e+02	1.71500e+03	3.43447e-02	6.47500e+02
1721	6.51492e+02	1.72100e+03	3.41262e-02	6.50500e+02
1727	6.54386e+02	1.72700e+03	3.40820e-02	6.53500e+02
1733	6.57280e+02	1.73300e+03	3.46711e-02	6.56500e+02
1739	6.60193e+02	1.73900e+03	3.47527e-02	6.59500e+02
1745	6.63138e+02	1.74500e+03	3.43871e-02	6.62500e+02
1751	6.66074e+02	1.75100e+03	3.41773e-02	6.65500e+02
1757	6.69016e+02	1.75700e+03	3.43284e-02	6.68500e+02
1763	6.71961e+02	1.76300e+03	3.43860e-02	6.71500e+02
1769	6.74908e+02	1.76900e+03	3.43035e-02	6.74500e+02
1775	6.77820e+02	1.77500e+03	3.42573e-02	6.77500e+02
1781	6.80728e+02	1.78100e+03	3.42042e-02	6.80500e+02
1787	6.83644e+02	1.78700e+03	3.40337e-02	6.83500e+02
1793	6.86531e+02	1.79300e+03	3.39938e-02	6.86500e+02
1799	6.88306e+02	1.79900e+03	3.44835e-02	6.89500e+02
1805	6.90239e+02	1.80500e+03	3.45870e-02	6.92500e+02
1811	6.91830e+02	1.81100e+03	3.44125e-02	6.95500e+02
1817	6.93165e+02	1.81700e+03	3.43177e-02	6.98500e+02
1820	6.93747e+02	1.82000e+03	3.43359e-02	7.00000e+02