File: Experiments/TGA/TUBS/tga_nonisotherm/tga_dynamic_n2_dyn10_powder_3mg_r1.txt
index	ts	t	weight	tr
[#]	[°C]	[s]	[mg]	[°C]
843	1.30729e+02	8.43000e+02	3.02599e+00	1.30500e+02
862	1.33912e+02	8.62000e+02	3.02553e+00	1.33667e+02
881	1.37102e+02	8.81000e+02	3.02437e+00	1.36833e+02
900	1.40290e+02	9.00000e+02	3.02344e+00	1.40000e+02
919	1.43469e+02	9.19000e+02	3.02227e+00	1.43167e+02
938	1.46675e+02	9.38000e+02	3.02095e+00	1.46333e+02
957	1.49873e+02	9.57000e+02	3.01899e+00	1.49500e+02
976	1.53077e+02	9.76000e+02	3.01707e+00	1.52667e+02
995	1.56277e+02	9.95000e+02	3.01486e+00	1.55833e+02
1014	1.59490e+02	1.01400e+03	3.01263e+00	1.59000e+02
1033	1.62685e+02	1.03300e+03	3.00988e+00	1.62167e+02
1052	1.65870e+02	1.05200e+03	3.00636e+00	1.65333e+02
1071	1.69081e+02	1.07100e+03	3.00164e+00	1.68500e+02
1090	1.72288e+02	1.09000e+03	2.99496e+00	1.71667e+02
1109	1.75484e+02	1.10900e+03	2.98695e+00	1.74833e+02
1128	1.78686e+02	1.12800e+03	2.97674e+00	1.78000e+02
1147	1.81877e+02	1.14700e+03	2.96521e+00	1.81167e+02
1166	1.85087e+02	1.16600e+03	2.95341e+00	1.84333e+02
1185	1.88306e+02	1.18500e+03	2.94259e+00	1.87500e+02
1204	1.91522e+02	1.20400e+03	2.93371e+00	1.90667e+02
1223	1.94731e+02	1.22300e+03	2.92657e+00	1.93833e+02
1242	1.97932e+02	1.24200e+03	2.92171e+00	1.97000e+02
1261	2.01150e+02	1.26100e+03	2.91804e+00	2.00167e+02
1280	2.04363e+02	1.28000e+03	2.91563e+00	2.03333e+02
1299	2.07582e+02	1.29900e+03	2.91320e+00	2.06500e+02
1318	2.10802e+02	1.31800e+03	2.91081e+00	2.09667e+02
1337	2.14018e+02	1.33700e+03	2.90869e+00	2.12833e+02
1356	2.17225e+02	1.35600e+03	2.90636e+00	2.16000e+02
1375	2.20420e+02	1.37500e+03	2.90420e+00	2.19167e+02
1394	2.23619e+02	1.39400e+03	2.90247e+00	2.22333e+02
1413	2.26826e+02	1.41300e+03	2.90052e+00	2.25500e+02
1432	2.30001e+02	1.43200e+03	2.89907e+00	2.28667e+02
1451	2.33174e+02	1.45100e+03	2.89800e+00	2.31833e+02
1470	2.36371e+02	1.47000e+03	2.89680e+00	2.35000e+02
1489	2.39566e+02	1.48900e+03	2.89592e+00	2.38167e+02
1508	2.42741e+02	1.50800e+03	2.89492e+00	2.41333e+02
1527	2.45898e+02	1.52700e+03	2.89419e+00	2.44500e+02
1546	2.49066e+02	1.54600e+03	2.89286e+00	2.47667e+02
1565	2.52230e+02	1.56500e+03	2.89176e+00	2.50833e+02
1584	2.55421e+02	1.58400e+03	2.89042e+00	2.54000e+02
1603	2.58597e+02	1.60300e+03	2.88921e+00	2.57167e+02
1622	2.61747e+02	1.62200e+03	2.88731e+00	2.60333e+02
1641	2.64921e+02	1.64100e+03	2.88532e+00	2.63500e+02
1660	2.68101e+02	1.66000e+03	2.88262e+00	2.66667e+02
1679	2.71292e+02	1.67900e+03	2.87912e+00	2.69833e+02
1698	2.74478e+02	1.69800e+03	2.87538e+00	2.73000e+02
1717	2.77718e+02	1.71700e+03	2.87022e+00	2.76167e+02
1736	2.80934e+02	1.73600e+03	2.86416e+00	2.79333e+02
1755	2.84127e+02	1.75500e+03	2.85682e+00	2.82500e+02
1774	2.87286e+02	1.77400e+03	2.84798e+00	2.85667e+02
1793	2.90452e+02	1.79300e+03	2.83723e+00	2.88833e+02
1812	2.93621e+02	1.81200e+03	2.82510e+00	2.92000e+02
1831	2.96774e+02	1.83100e+03	2.81171e+00	2.95167e+02
1850	2.99943e+02	1.85000e+03	2.79703e+00	2.98333e+02
1869	3.03099e+02	1.86900e+03	2.78188e+00	3.01500e+02
1888	3.06222e+02	1.88800e+03	2.76613e+00	3.04667e+02
1907	3.09309e+02	1.90700e+03	2.75021e+00	3.07833e+02
1926	3.12436e+02	1.92600e+03	2.73385e+00	3.11000e+02
1945	3.15603e+02	1.94500e+03	2.71607e+00	3.14167e+02
1964	3.18768e+02	1.96400e+03	2.69572e+00	3.17333e+02
1983	3.21928e+02	1.98300e+03	2.67189e+00	3.20500e+02
2002	3.25106e+02	2.00200e+03	2.64280e+00	3.23667e+02
2021	3.28260e+02	2.02100e+03	2.60752e+00	3.26833e+02
2040	3.31443e+02	2.04000e+03	2.56398e+00	3.30000e+02
2059	3.34662e+02	2.05900e+03	2.51011e+00	3.33167e+02
2078	3.37803e+02	2.07800e+03	2.44580e+00	3.36333e+02
2097	3.40938e+02	2.09700e+03	2.36793e+00	3.39500e+02
2116	3.44082e+02	2.11600e+03	2.27652e+00	3.42667e+02
2135	3.47237e+02	2.13500e+03	2.17115e+00	3.45833e+02
2154	3.50366e+02	2.15400e+03	2.05246e+00	3.49000e+02
2173	3.53523e+02	2.17300e+03	1.92138e+00	3.52167e+02
2192	3.56673e+02	2.19200e+03	1.77948e+00	3.55333e+02
2211	3.59845e+02	2.21100e+03	1.62751e+00	3.58500e+02
2230	3.63033e+02	2.23000e+03	1.47181e+00	3.61667e+02
2249	3.66299e+02	2.24900e+03	1.31146e+00	3.64833e+02
2268	3.69551e+02	2.26800e+03	1.14544e+00	3.68000e+02
2287	3.72792e+02	2.28700e+03	9.81316e-01	3.71167e+02
2306	3.76284e+02	2.30600e+03	8.24681e-01	3.74333e+02
2325	3.79497e+02	2.32500e+03	6.79609e-01	3.77500e+02
2344	3.82647e+02	2.34400e+03	5.50135e-01	3.80667e+02
2363	3.85852e+02	2.36300e+03	4.37958e-01	3.83833e+02
2382	3.89049e+02	2.38200e+03	3.43679e-01	3.87000e+02
2401	3.92262e+02	2.40100e+03	2.66060e-01	3.90167e+02
2420	3.95453e+02	2.42000e+03	2.03511e-01	3.93333e+02
2439	3.98601e+02	2.43900e+03	1.53957e-01	3.96500e+02
2458	4.01764e+02	2.45800e+03	1.16227e-01	3.99667e+02
2477	4.04937e+02	2.47700e+03	8.81858e-02	4.02833e+02
2496	4.08057e+02	2.49600e+03	6.83328e-02	4.06000e+02
2515	4.11205e+02	2.51500e+03	5.43969e-02	4.09167e+02
2534	4.14370e+02	2.53400e+03	4.49074e-02	4.12333e+02
2553	4.17522e+02	2.55300e+03	3.85999e-02	4.15500e+02
2572	4.20653e+02	2.57200e+03	3.40353e-02	4.18667e+02
2591	4.23767e+02	2.59100e+03	3.12050e-02	4.21833e+02
2610	4.26890e+02	2.61000e+03	2.90056e-02	4.25000e+02
2629	4.29998e+02	2.62900e+03	2.79132e-02	4.28167e+02
2648	4.33087e+02	2.64800e+03	2.69765e-02	4.31333e+02
2667	4.36154e+02	2.66700e+03	2.63865e-02	4.34500e+02
2686	4.39190e+02	2.68600e+03	2.60063e-02	4.37667e+02
2705	4.42058e+02	2.70500e+03	2.58213e-02	4.40833e+02
2724	4.45109e+02	2.72400e+03	2.57791e-02	4.44000e+02
2743	4.48211e+02	2.74300e+03	2.55938e-02	4.47167e+02
2762	4.51307e+02	2.76200e+03	2.55967e-02	4.50333e+02
2781	4.54389e+02	2.78100e+03	2.52123e-02	4.53500e+02
2800	4.57507e+02	2.80000e+03	2.52907e-02	4.56667e+02
2819	4.60613e+02	2.81900e+03	2.49930e-02	4.59833e+02
2838	4.63733e+02	2.83800e+03	2.50956e-02	4.63000e+02
2857	4.66858e+02	2.85700e+03	2.51284e-02	4.66167e+02
2876	4.69973e+02	2.87600e+03	2.50083e-02	4.69333e+02
2895	4.73090e+02	2.89500e+03	2.47648e-02	4.72500e+02
2914	4.76211e+02	2.91400e+03	2.49183e-02	4.75667e+02
2933	4.79323e+02	2.93300e+03	2.48036e-02	4.78833e+02
2952	4.82451e+02	2.95200e+03	2.47657e-02	4.82000e+02
2971	4.85572e+02	2.97100e+03	2.46365e-02	4.85167e+02
2990	4.88706e+02	2.99000e+03	2.44330e-02	4.88333e+02
3009	4.91839e+02	3.00900e+03	2.47349e-02	4.91500e+02
3028	4.94966e+02	3.02800e+03	2.47722e-02	4.94667e+02
3047	4.98110e+02	3.04700e+03	2.45545e-02	4.97833e+02
3066	5.01235e+02	3.06600e+03	2.45692e-02	5.01000e+02
3085	5.04385e+02	3.08500e+03	2.45264e-02	5.04167e+02
3104	5.07515e+02	3.10400e+03	2.43754e-02	5.07333e+02
3123	5.10668e+02	3.12300e+03	2.41917e-02	5.10500e+02
3142	5.13812e+02	3.14200e+03	2.43985e-02	5.13667e+02
3161	5.16973e+02	3.16100e+03	2.46355e-02	5.16833e+02
3180	5.20104e+02	3.18000e+03	2.43538e-02	5.20000e+02
3199	5.23259e+02	3.19900e+03	2.42837e-02	5.23167e+02
3218	5.26414e+02	3.21800e+03	2.42841e-02	5.26333e+02
3237	5.29570e+02	3.23700e+03	2.42205e-02	5.29500e+02
3256	5.32750e+02	3.25600e+03	2.43198e-02	5.32667e+02
3275	5.35927e+02	3.27500e+03	2.43318e-02	5.35833e+02
3294	5.39113e+02	3.29400e+03	2.41374e-02	5.39000e+02
3313	5.42293e+02	3.31300e+03	2.40693e-02	5.42167e+02
3332	5.45474e+02	3.33200e+03	2.44384e-02	5.45333e+02
3351	5.48637e+02	3.35100e+03	2.42450e-02	5.48500e+02
3370	5.51767e+02	3.37000e+03	2.41624e-02	5.51667e+02
3389	5.54890e+02	3.38900e+03	2.43093e-02	5.54833e+02
3408	5.58014e+02	3.40800e+03	2.38924e-02	5.58000e+02
3427	5.61174e+02	3.42700e+03	2.40639e-02	5.61167e+02
3446	5.64339e+02	3.44600e+03	2.39566e-02	5.64333e+02
3465	5.67485e+02	3.46500e+03	2.40842e-02	5.67500e+02
3484	5.70641e+02	3.48400e+03	2.39076e-02	5.70667e+02
3503	5.73779e+02	3.50300e+03	2.39078e-02	5.73833e+02
3522	5.76903e+02	3.52200e+03	2.36674e-02	5.77000e+02
3541	5.80057e+02	3.54100e+03	2.38804e-02	5.80167e+02
3560	5.83180e+02	3.56000e+03	2.38010e-02	5.83333e+02
3579	5.86327e+02	3.57900e+03	2.37242e-02	5.86500e+02
3598	5.89464e+02	3.59800e+03	2.36501e-02	5.89667e+02
3617	5.92599e+02	3.61700e+03	2.37069e-02	5.92833e+02
3636	5.95710e+02	3.63600e+03	2.37736e-02	5.96000e+02
3655	5.98853e+02	3.65500e+03	2.36729e-02	5.99167e+02
3674	6.01971e+02	3.67400e+03	2.36695e-02	6.02333e+02
3693	6.05090e+02	3.69300e+03	2.35248e-02	6.05500e+02
3712	6.08212e+02	3.71200e+03	2.35515e-02	6.08667e+02
3731	6.11338e+02	3.73100e+03	2.36445e-02	6.11833e+02
3750	6.14454e+02	3.75000e+03	2.33395e-02	6.15000e+02
3769	6.17590e+02	3.76900e+03	2.32985e-02	6.18167e+02
3788	6.20749e+02	3.78800e+03	2.34603e-02	6.21333e+02
3807	6.23915e+02	3.80700e+03	2.33478e-02	6.24500e+02
3826	6.27079e+02	3.82600e+03	2.32739e-02	6.27667e+02
3845	6.30255e+02	3.84500e+03	2.33585e-02	6.30833e+02
3864	6.33426e+02	3.86400e+03	2.33214e-02	6.34000e+02
3883	6.36602e+02	3.88300e+03	2.32542e-02	6.37167e+02
3902	6.39758e+02	3.90200e+03	2.33170e-02	6.40333e+02
3921	6.42933e+02	3.92100e+03	2.31325e-02	6.43500e+02
3940	6.46119e+02	3.94000e+03	2.31865e-02	6.46667e+02
3959	6.49300e+02	3.95900e+03	2.33032e-02	6.49833e+02
3978	6.52502e+02	3.97800e+03	2.30814e-02	6.53000e+02
3997	6.55677e+02	3.99700e+03	2.31769e-02	6.56167e+02
4016	6.58826e+02	4.01600e+03	2.31045e-02	6.59333e+02
4035	6.61979e+02	4.03500e+03	2.29490e-02	6.62500e+02
4054	6.65118e+02	4.05400e+03	2.28781e-02	6.65667e+02
4073	6.68291e+02	4.07300e+03	2.29346e-02	6.68833e+02
4092	6.71427e+02	4.09200e+03	2.30296e-02	6.72000e+02
4111	6.74553e+02	4.11100e+03	2.29935e-02	6.75167e+02
4130	6.77682e+02	4.13000e+03	2.28305e-02	6.78333e+02
4149	6.80828e+02	4.14900e+03	2.26084e-02	6.81500e+02
4168	6.83950e+02	4.16800e+03	2.27146e-02	6.84667e+02
4187	6.87084e+02	4.18700e+03	2.26771e-02	6.87833e+02
4206	6.90225e+02	4.20600e+03	2.28901e-02	6.91000e+02
4225	6.93370e+02	4.22500e+03	2.28826e-02	6.94167e+02
4244	6.95950e+02	4.24400e+03	2.27304e-02	6.97333e+02
4260	6.97320e+02	4.26000e+03	2.26467e-02	7.00000e+02