File: Experiments/TGA/TUBS/tga_nonisotherm/tga_dynamic_n2_dyn30_piece_2mg_r3.txt
index	ts	t	weight	tr
[#]	[°C]	[s]	[mg]	[°C]
683	1.30898e+02	6.83000e+02	1.99695e+00	1.31500e+02
689	1.33896e+02	6.89000e+02	1.99682e+00	1.34500e+02
695	1.36889e+02	6.95000e+02	1.99676e+00	1.37500e+02
701	1.39899e+02	7.01000e+02	1.99659e+00	1.40500e+02
707	1.42906e+02	7.07000e+02	1.99645e+00	1.43500e+02
713	1.45903e+02	7.13000e+02	1.99631e+00	1.46500e+02
719	1.48918e+02	7.19000e+02	1.99630e+00	1.49500e+02
725	1.51916e+02	7.25000e+02	1.99614e+00	1.52500e+02
731	1.54941e+02	7.31000e+02	1.99591e+00	1.55500e+02
737	1.57930e+02	7.37000e+02	1.99567e+00	1.58500e+02
743	1.60954e+02	7.43000e+02	1.99553e+00	1.61500e+02
749	1.63977e+02	7.49000e+02	1.99538e+00	1.64500e+02
755	1.66988e+02	7.55000e+02	1.99527e+00	1.67500e+02
761	1.70028e+02	7.61000e+02	1.99500e+00	1.70500e+02
767	1.73045e+02	7.67000e+02	1.99465e+00	1.73500e+02
773	1.76073e+02	7.73000e+02	1.99435e+00	1.76500e+02
779	1.79098e+02	7.79000e+02	1.99406e+00	1.79500e+02
785	1.82142e+02	7.85000e+02	1.99363e+00	1.82500e+02
791	1.85170e+02	7.91000e+02	1.99328e+00	1.85500e+02
797	1.88202e+02	7.97000e+02	1.99268e+00	1.88500e+02
803	1.91256e+02	8.03000e+02	1.99197e+00	1.91500e+02
809	1.94307e+02	8.09000e+02	1.99119e+00	1.94500e+02
815	1.97332e+02	8.15000e+02	1.99025e+00	1.97500e+02
821	2.00372e+02	8.21000e+02	1.98914e+00	2.00500e+02
827	2.03391e+02	8.27000e+02	1.98795e+00	2.03500e+02
833	2.06413e+02	8.33000e+02	1.98668e+00	2.06500e+02
839	2.09442e+02	8.39000e+02	1.98532e+00	2.09500e+02
845	2.12493e+02	8.45000e+02	1.98384e+00	2.12500e+02
851	2.15529e+02	8.51000e+02	1.98242e+00	2.15500e+02
857	2.18564e+02	8.57000e+02	1.98109e+00	2.18500e+02
863	2.21601e+02	8.63000e+02	1.97968e+00	2.21500e+02
869	2.24648e+02	8.69000e+02	1.97830e+00	2.24500e+02
875	2.27726e+02	8.75000e+02	1.97685e+00	2.27500e+02
881	2.30800e+02	8.81000e+02	1.97519e+00	2.30500e+02
887	2.33843e+02	8.87000e+02	1.97356e+00	2.33500e+02
893	2.36868e+02	8.93000e+02	1.97189e+00	2.36500e+02
899	2.39887e+02	8.99000e+02	1.97027e+00	2.39500e+02
905	2.42923e+02	9.05000e+02	1.96859e+00	2.42500e+02
911	2.45956e+02	9.11000e+02	1.96677e+00	2.45500e+02
917	2.48986e+02	9.17000e+02	1.96495e+00	2.48500e+02
923	2.52027e+02	9.23000e+02	1.96323e+00	2.51500e+02
929	2.55084e+02	9.29000e+02	1.96143e+00	2.54500e+02
935	2.58129e+02	9.35000e+02	1.95954e+00	2.57500e+02
941	2.61226e+02	9.41000e+02	1.95757e+00	2.60500e+02
947	2.64276e+02	9.47000e+02	1.95563e+00	2.63500e+02
953	2.67331e+02	9.53000e+02	1.95375e+00	2.66500e+02
959	2.70436e+02	9.59000e+02	1.95170e+00	2.69500e+02
965	2.73483e+02	9.65000e+02	1.94969e+00	2.72500e+02
971	2.76534e+02	9.71000e+02	1.94754e+00	2.75500e+02
977	2.79596e+02	9.77000e+02	1.94545e+00	2.78500e+02
983	2.82673e+02	9.83000e+02	1.94173e+00	2.81500e+02
989	2.85760e+02	9.89000e+02	1.93803e+00	2.84500e+02
995	2.88888e+02	9.95000e+02	1.93478e+00	2.87500e+02
1001	2.92073e+02	1.00100e+03	1.93150e+00	2.90500e+02
1007	2.95097e+02	1.00700e+03	1.92799e+00	2.93500e+02
1013	2.98120e+02	1.01300e+03	1.92423e+00	2.96500e+02
1019	3.01218e+02	1.01900e+03	1.92018e+00	2.99500e+02
1025	3.04237e+02	1.02500e+03	1.91574e+00	3.02500e+02
1031	3.07290e+02	1.03100e+03	1.91094e+00	3.05500e+02
1037	3.10337e+02	1.03700e+03	1.90579e+00	3.08500e+02
1043	3.13361e+02	1.04300e+03	1.90022e+00	3.11500e+02
1049	3.16446e+02	1.04900e+03	1.89426e+00	3.14500e+02
1055	3.19462e+02	1.05500e+03	1.88815e+00	3.17500e+02
1061	3.22494e+02	1.06100e+03	1.88174e+00	3.20500e+02
1067	3.25524e+02	1.06700e+03	1.87509e+00	3.23500e+02
1073	3.28516e+02	1.07300e+03	1.86832e+00	3.26500e+02
1079	3.31478e+02	1.07900e+03	1.86099e+00	3.29500e+02
1085	3.34474e+02	1.08500e+03	1.85284e+00	3.32500e+02
1091	3.37529e+02	1.09100e+03	1.84362e+00	3.35500e+02
1097	3.40540e+02	1.09700e+03	1.83290e+00	3.38500e+02
1103	3.43498e+02	1.10300e+03	1.82037e+00	3.41500e+02
1109	3.46478e+02	1.10900e+03	1.80531e+00	3.44500e+02
1115	3.49459e+02	1.11500e+03	1.78744e+00	3.47500e+02
1121	3.52400e+02	1.12100e+03	1.76520e+00	3.50500e+02
1127	3.55372e+02	1.12700e+03	1.73791e+00	3.53500e+02
1133	3.58426e+02	1.13300e+03	1.70504e+00	3.56500e+02
1139	3.61398e+02	1.13900e+03	1.66616e+00	3.59500e+02
1145	3.64400e+02	1.14500e+03	1.61745e+00	3.62500e+02
1151	3.67393e+02	1.15100e+03	1.56025e+00	3.65500e+02
1157	3.70342e+02	1.15700e+03	1.49403e+00	3.68500e+02
1163	3.73285e+02	1.16300e+03	1.41880e+00	3.71500e+02
1169	3.76247e+02	1.16900e+03	1.33273e+00	3.74500e+02
1175	3.79224e+02	1.17500e+03	1.24043e+00	3.77500e+02
1181	3.82209e+02	1.18100e+03	1.14398e+00	3.80500e+02
1187	3.85170e+02	1.18700e+03	1.04407e+00	3.83500e+02
1193	3.88152e+02	1.19300e+03	9.41174e-01	3.86500e+02
1199	3.91158e+02	1.19900e+03	8.37627e-01	3.89500e+02
1205	3.94244e+02	1.20500e+03	7.34666e-01	3.92500e+02
1211	3.97697e+02	1.21100e+03	6.33029e-01	3.95500e+02
1217	4.00960e+02	1.21700e+03	5.30902e-01	3.98500e+02
1223	4.04123e+02	1.22300e+03	4.30461e-01	4.01500e+02
1229	4.07400e+02	1.22900e+03	3.37965e-01	4.04500e+02
1235	4.10409e+02	1.23500e+03	2.58031e-01	4.07500e+02
1241	4.13304e+02	1.24100e+03	1.94203e-01	4.10500e+02
1247	4.16456e+02	1.24700e+03	1.43103e-01	4.13500e+02
1253	4.19363e+02	1.25300e+03	1.04751e-01	4.16500e+02
1259	4.22345e+02	1.25900e+03	7.60912e-02	4.19500e+02
1265	4.25328e+02	1.26500e+03	5.66063e-02	4.22500e+02
1271	4.28397e+02	1.27100e+03	4.27335e-02	4.25500e+02
1277	4.31458e+02	1.27700e+03	3.34255e-02	4.28500e+02
1283	4.34488e+02	1.28300e+03	2.68618e-02	4.31500e+02
1289	4.37492e+02	1.28900e+03	2.25624e-02	4.34500e+02
1295	4.40515e+02	1.29500e+03	1.93404e-02	4.37500e+02
1301	4.43585e+02	1.30100e+03	1.69600e-02	4.40500e+02
1307	4.46806e+02	1.30700e+03	1.49342e-02	4.43500e+02
1313	4.49821e+02	1.31300e+03	1.35856e-02	4.46500e+02
1319	4.52759e+02	1.31900e+03	1.26923e-02	4.49500e+02
1325	4.55744e+02	1.32500e+03	1.20700e-02	4.52500e+02
1331	4.59356e+02	1.33100e+03	1.15532e-02	4.55500e+02
1337	4.62640e+02	1.33700e+03	1.12945e-02	4.58500e+02
1343	4.65417e+02	1.34300e+03	1.12838e-02	4.61500e+02
1349	4.67849e+02	1.34900e+03	1.12266e-02	4.64500e+02
1355	4.70013e+02	1.35500e+03	1.10829e-02	4.67500e+02
1361	4.72573e+02	1.36100e+03	1.09836e-02	4.70500e+02
1367	4.75418e+02	1.36700e+03	1.09087e-02	4.73500e+02
1373	4.78229e+02	1.37300e+03	1.07648e-02	4.76500e+02
1379	4.81113e+02	1.37900e+03	1.06705e-02	4.79500e+02
1385	4.84011e+02	1.38500e+03	1.06321e-02	4.82500e+02
1391	4.86912e+02	1.39100e+03	1.05715e-02	4.85500e+02
1397	4.89817e+02	1.39700e+03	1.05174e-02	4.88500e+02
1403	4.92707e+02	1.40300e+03	1.03689e-02	4.91500e+02
1409	4.95591e+02	1.40900e+03	1.01375e-02	4.94500e+02
1415	4.98457e+02	1.41500e+03	1.00735e-02	4.97500e+02
1421	5.01339e+02	1.42100e+03	1.01099e-02	5.00500e+02
1427	5.04236e+02	1.42700e+03	1.01171e-02	5.03500e+02
1433	5.07165e+02	1.43300e+03	1.00435e-02	5.06500e+02
1439	5.10079e+02	1.43900e+03	1.00603e-02	5.09500e+02
1445	5.12998e+02	1.44500e+03	1.00142e-02	5.12500e+02
1451	5.15932e+02	1.45100e+03	9.72131e-03	5.15500e+02
1457	5.18878e+02	1.45700e+03	9.93911e-03	5.18500e+02
1463	5.21822e+02	1.46300e+03	1.03317e-02	5.21500e+02
1469	5.24763e+02	1.46900e+03	1.02050e-02	5.24500e+02
1475	5.27722e+02	1.47500e+03	1.00412e-02	5.27500e+02
1481	5.30740e+02	1.48100e+03	9.99537e-03	5.30500e+02
1487	5.33764e+02	1.48700e+03	9.93197e-03	5.33500e+02
1493	5.36796e+02	1.49300e+03	9.93036e-03	5.36500e+02
1499	5.39786e+02	1.49900e+03	9.83689e-03	5.39500e+02
1505	5.42780e+02	1.50500e+03	9.77048e-03	5.42500e+02
1511	5.45757e+02	1.51100e+03	9.83944e-03	5.45500e+02
1517	5.48730e+02	1.51700e+03	9.91631e-03	5.48500e+02
1523	5.51720e+02	1.52300e+03	9.97643e-03	5.51500e+02
1529	5.54715e+02	1.52900e+03	9.97127e-03	5.54500e+02
1535	5.57684e+02	1.53500e+03	9.74577e-03	5.57500e+02
1541	5.60686e+02	1.54100e+03	1.00067e-02	5.60500e+02
1547	5.63566e+02	1.54700e+03	1.00801e-02	5.63500e+02
1553	5.66495e+02	1.55300e+03	9.98177e-03	5.66500e+02
1559	5.69424e+02	1.55900e+03	9.99411e-03	5.69500e+02
1565	5.72407e+02	1.56500e+03	9.92800e-03	5.72500e+02
1571	5.75391e+02	1.57100e+03	9.95368e-03	5.75500e+02
1577	5.78381e+02	1.57700e+03	9.97020e-03	5.78500e+02
1583	5.81440e+02	1.58300e+03	9.96469e-03	5.81500e+02
1589	5.84500e+02	1.58900e+03	9.93031e-03	5.84500e+02
1595	5.87521e+02	1.59500e+03	9.98722e-03	5.87500e+02
1601	5.90457e+02	1.60100e+03	9.97534e-03	5.90500e+02
1607	5.93524e+02	1.60700e+03	9.88235e-03	5.93500e+02
1613	5.96493e+02	1.61300e+03	9.79433e-03	5.96500e+02
1619	5.99505e+02	1.61900e+03	9.82273e-03	5.99500e+02
1625	6.02436e+02	1.62500e+03	9.77851e-03	6.02500e+02
1631	6.05408e+02	1.63100e+03	9.75657e-03	6.05500e+02
1637	6.08371e+02	1.63700e+03	9.76027e-03	6.08500e+02
1643	6.11395e+02	1.64300e+03	9.69802e-03	6.11500e+02
1649	6.14328e+02	1.64900e+03	9.62268e-03	6.14500e+02
1655	6.17199e+02	1.65500e+03	9.66285e-03	6.17500e+02
1661	6.20178e+02	1.66100e+03	9.70337e-03	6.20500e+02
1667	6.23150e+02	1.66700e+03	9.63705e-03	6.23500e+02
1673	6.26097e+02	1.67300e+03	9.70649e-03	6.26500e+02
1679	6.29061e+02	1.67900e+03	9.78166e-03	6.29500e+02
1685	6.32023e+02	1.68500e+03	9.71297e-03	6.32500e+02
1691	6.35001e+02	1.69100e+03	9.63168e-03	6.35500e+02
1697	6.37932e+02	1.69700e+03	9.62119e-03	6.38500e+02
1703	6.40802e+02	1.70300e+03	9.67667e-03	6.41500e+02
1709	6.43696e+02	1.70900e+03	9.61645e-03	6.44500e+02
1715	6.46645e+02	1.71500e+03	9.56652e-03	6.47500e+02
1721	6.49567e+02	1.72100e+03	9.39567e-03	6.50500e+02
1727	6.52455e+02	1.72700e+03	9.27286e-03	6.53500e+02
1733	6.55382e+02	1.73300e+03	9.81949e-03	6.56500e+02
1739	6.58322e+02	1.73900e+03	9.91097e-03	6.59500e+02
1745	6.61271e+02	1.74500e+03	9.56246e-03	6.62500e+02
1751	6.64224e+02	1.75100e+03	9.43194e-03	6.65500e+02
1757	6.67202e+02	1.75700e+03	9.62275e-03	6.68500e+02
1763	6.70171e+02	1.76300e+03	9.65186e-03	6.71500e+02
1769	6.73142e+02	1.76900e+03	9.48435e-03	6.74500e+02
1775	6.76109e+02	1.77500e+03	9.53582e-03	6.77500e+02
1781	6.79097e+02	1.78100e+03	9.52946e-03	6.80500e+02
1787	6.82070e+02	1.78700e+03	9.35286e-03	6.83500e+02
1793	6.85053e+02	1.79300e+03	9.28425e-03	6.86500e+02
1799	6.86829e+02	1.79900e+03	9.77389e-03	6.89500e+02
1805	6.88802e+02	1.80500e+03	9.89989e-03	6.92500e+02
1811	6.90444e+02	1.81100e+03	9.74705e-03	6.95500e+02
1817	6.91815e+02	1.81700e+03	9.68749e-03	6.98500e+02
1820	6.92397e+02	1.82000e+03	9.74107e-03	7.00000e+02