File: Experiments/TGA/TUBS/tga_nonisotherm/tga_dynamic_n2low30_dyn30_powder_3mg_r1.txt
Index	Ts	t	Weight	Tr
[#]	[°C]	[s]	[mg]	[°C]
681	1.30378e+02	6.81000e+02	3.04811	130.5
691	1.35432e+02	6.91000e+02	3.04708	135.5
701	1.40473e+02	7.01000e+02	3.0466	140.5
711	1.45535e+02	7.11000e+02	3.04552	145.5
721	1.50607e+02	7.21000e+02	3.04403	150.5
731	1.55649e+02	7.31000e+02	3.04211	155.5
741	1.60731e+02	7.41000e+02	3.04004	160.5
751	1.65808e+02	7.51000e+02	3.03735	165.5
761	1.70882e+02	7.61000e+02	3.03439	170.5
771	1.75961e+02	7.71000e+02	3.03067	175.5
781	1.81060e+02	7.81000e+02	3.02501	180.5
791	1.86150e+02	7.91000e+02	3.01685	185.5
801	1.91255e+02	8.01000e+02	3.00486	190.5
811	1.96363e+02	8.11000e+02	2.9905	195.5
821	2.01488e+02	8.21000e+02	2.97565	200.5
831	2.06606e+02	8.31000e+02	2.96315	205.5
841	2.11745e+02	8.41000e+02	2.95419	210.5
851	2.16863e+02	8.51000e+02	2.94936	215.5
861	2.21918e+02	8.61000e+02	2.94464	220.5
871	2.26988e+02	8.71000e+02	2.94091	225.5
881	2.32071e+02	8.81000e+02	2.93771	230.5
891	2.37092e+02	8.91000e+02	2.93395	235.5
901	2.42206e+02	9.01000e+02	2.93015	240.5
911	2.47306e+02	9.11000e+02	2.92661	245.5
921	2.52456e+02	9.21000e+02	2.9235	250.5
931	2.57654e+02	9.31000e+02	2.92081	255.5
941	2.62816e+02	9.41000e+02	2.91814	260.5
951	2.67976e+02	9.51000e+02	2.91551	265.5
961	2.73096e+02	9.61000e+02	2.91269	270.5
971	2.78283e+02	9.71000e+02	2.90927	275.5
981	2.83441e+02	9.81000e+02	2.90483	280.5
991	2.88606e+02	9.91000e+02	2.89881	285.5
1001	2.93878e+02	1.00100e+03	2.8903	290.5
1011	2.98946e+02	1.01100e+03	2.87866	295.5
1021	3.04011e+02	1.02100e+03	2.86396	300.5
1031	3.09168e+02	1.03100e+03	2.84559	305.5
1041	3.14183e+02	1.04100e+03	2.82415	310.5
1051	3.19177e+02	1.05100e+03	2.80153	315.5
1061	3.24220e+02	1.06100e+03	2.77742	320.5
1071	3.29313e+02	1.07100e+03	2.75219	325.5
1081	3.34479e+02	1.08100e+03	2.72157	330.5
1091	3.39493e+02	1.09100e+03	2.68173	335.5
1101	3.44431e+02	1.10100e+03	2.62856	340.5
1111	3.49333e+02	1.11100e+03	2.55733	345.5
1121	3.54369e+02	1.12100e+03	2.46248	350.5
1131	3.59474e+02	1.13100e+03	2.34119	355.5
1141	3.64437e+02	1.14100e+03	2.19301	360.5
1151	3.69377e+02	1.15100e+03	2.01921	365.5
1161	3.74308e+02	1.16100e+03	1.8216	370.5
1171	3.79306e+02	1.17100e+03	1.60383	375.5
1181	3.84235e+02	1.18100e+03	1.37069	380.5
1191	3.89336e+02	1.19100e+03	1.13112	385.5
1201	3.94301e+02	1.20100e+03	0.896774	390.5
1211	3.99330e+02	1.21100e+03	0.679066	395.5
1221	4.04445e+02	1.22100e+03	0.490863	400.5
1231	4.09467e+02	1.23100e+03	0.338593	405.5
1241	4.14622e+02	1.24100e+03	0.225985	410.5
1251	4.19793e+02	1.25100e+03	0.145725	415.5
1261	4.24936e+02	1.26100e+03	0.0936501	420.5
1271	4.29892e+02	1.27100e+03	0.0617087	425.5
1281	4.34799e+02	1.28100e+03	0.0443194	430.5
1291	4.39731e+02	1.29100e+03	0.0349101	435.5
1301	4.44673e+02	1.30100e+03	0.0302376	440.5
1311	4.49584e+02	1.31100e+03	0.0274059	445.5
1321	4.54574e+02	1.32100e+03	0.025798	450.5
1331	4.59493e+02	1.33100e+03	0.0250232	455.5
1341	4.64762e+02	1.34100e+03	0.0248588	460.5
1351	4.69828e+02	1.35100e+03	0.0244109	465.5
1361	4.74762e+02	1.36100e+03	0.0243826	470.5
1371	4.79277e+02	1.37100e+03	0.024347	475.5
1381	4.83864e+02	1.38100e+03	0.0240628	480.5
1391	4.88537e+02	1.39100e+03	0.0239096	485.5
1401	4.93527e+02	1.40100e+03	0.023863	490.5
1411	4.98405e+02	1.41100e+03	0.0237236	495.5
1421	5.03440e+02	1.42100e+03	0.0235784	500.5
1431	5.08205e+02	1.43100e+03	0.0230959	505.5
1441	5.12991e+02	1.44100e+03	0.0233103	510.5
1451	5.17853e+02	1.45100e+03	0.0231732	515.5
1461	5.22769e+02	1.46100e+03	0.0232102	520.5
1471	5.27709e+02	1.47100e+03	0.0230054	525.5
1481	5.32715e+02	1.48100e+03	0.0232909	530.5
1491	5.37907e+02	1.49100e+03	0.0232023	535.5
1501	5.43063e+02	1.50100e+03	0.0229447	540.5
1511	5.47929e+02	1.51100e+03	0.0231036	545.5
1521	5.52667e+02	1.52100e+03	0.0225595	550.5
1531	5.57428e+02	1.53100e+03	0.022745	555.5
1541	5.62333e+02	1.54100e+03	0.0224817	560.5
1551	5.67199e+02	1.55100e+03	0.0226163	565.5
1561	5.72044e+02	1.56100e+03	0.0223274	570.5
1571	5.77094e+02	1.57100e+03	0.0223325	575.5
1581	5.82275e+02	1.58100e+03	0.0223181	580.5
1591	5.86856e+02	1.59100e+03	0.0223102	585.5
1601	5.91690e+02	1.60100e+03	0.0219729	590.5
1611	5.96537e+02	1.61100e+03	0.0216282	595.5
1621	6.01331e+02	1.62100e+03	0.0218795	600.5
1631	6.06236e+02	1.63100e+03	0.0218771	605.5
1641	6.11168e+02	1.64100e+03	0.0217578	610.5
1651	6.16077e+02	1.65100e+03	0.0217654	615.5
1661	6.20988e+02	1.66100e+03	0.0217022	620.5
1671	6.25828e+02	1.67100e+03	0.0220809	625.5
1681	6.30751e+02	1.68100e+03	0.02155	630.5
1691	6.35864e+02	1.69100e+03	0.0216351	635.5
1701	6.40927e+02	1.70100e+03	0.021608	640.5
1711	6.46066e+02	1.71100e+03	0.0214995	645.5
1721	6.51148e+02	1.72100e+03	0.0215583	650.5
1731	6.56179e+02	1.73100e+03	0.0213943	655.5
1741	6.61062e+02	1.74100e+03	0.0214734	660.5
1751	6.66053e+02	1.75100e+03	0.0213851	665.5
1761	6.70942e+02	1.76100e+03	0.0213833	670.5
1771	6.75938e+02	1.77100e+03	0.0213164	675.5
1781	6.80871e+02	1.78100e+03	0.0213948	680.5
1791	6.85881e+02	1.79100e+03	0.0211705	685.5
1801	6.89404e+02	1.80100e+03	0.0213796	690.5
1811	6.92234e+02	1.81100e+03	0.0212529	695.5
1821	6.94389e+02	1.82100e+03	0.0217458	700.0
1831	6.95969e+02	1.83100e+03	0.0209374	700.0
1841	6.97173e+02	1.84100e+03	0.0211824	700.0
1851	6.98040e+02	1.85100e+03	0.0214231	700.0
1861	6.98674e+02	1.86100e+03	0.021239	700.0
1871	6.99155e+02	1.87100e+03	0.0214618	700.0
1881	6.99540e+02	1.88100e+03	0.0215391	700.0
1891	6.99845e+02	1.89100e+03	0.0213725	700.0
1901	7.00047e+02	1.90100e+03	0.0214161	700.0
1911	7.00187e+02	1.91100e+03	0.021407	700.0
1921	7.00316e+02	1.92100e+03	0.0212811	700.0
1931	7.00421e+02	1.93100e+03	0.0213972	700.0
1941	7.00501e+02	1.94100e+03	0.0214919	700.0
1951	7.00555e+02	1.95100e+03	0.0213879	700.0
1961	7.00614e+02	1.96100e+03	0.0214181	700.0
1971	7.00648e+02	1.97100e+03	0.021481	700.0
1981	7.00680e+02	1.98100e+03	0.0214997	700.0
1991	7.00705e+02	1.99100e+03	0.0216354	700.0
2001	7.00709e+02	2.00100e+03	0.0214144	700.0
2011	7.00735e+02	2.01100e+03	0.0215473	700.0
2021	7.00736e+02	2.02100e+03	0.0214246	700.0
2031	7.00739e+02	2.03100e+03	0.0212968	700.0
2041	7.00739e+02	2.04100e+03	0.021222	700.0
2051	7.00728e+02	2.05100e+03	0.0214165	700.0
2061	7.00715e+02	2.06100e+03	0.0214145	700.0
2071	7.00713e+02	2.07100e+03	0.021204	700.0
2081	7.00711e+02	2.08100e+03	0.021172	700.0
2091	7.00704e+02	2.09100e+03	0.0212933	700.0
2101	7.00694e+02	2.10100e+03	0.0213578	700.0
2111	7.00685e+02	2.11100e+03	0.0214113	700.0
2121	7.00681e+02	2.12100e+03	0.0212886	700.0
2131	7.00670e+02	2.13100e+03	0.0214704	700.0
2141	7.00661e+02	2.14100e+03	0.0214834	700.0
2151	7.00638e+02	2.15100e+03	0.0214205	700.0
2161	7.00634e+02	2.16100e+03	0.021423	700.0
2171	7.00624e+02	2.17100e+03	0.0213922	700.0
2181	7.00613e+02	2.18100e+03	0.0214801	700.0
2191	7.00612e+02	2.19100e+03	0.0214105	700.0
2201	7.00600e+02	2.20100e+03	0.0215114	700.0
2211	7.00586e+02	2.21100e+03	0.0213172	700.0
2221	7.00572e+02	2.22100e+03	0.0213887	700.0
2231	7.00547e+02	2.23100e+03	0.0214419	700.0
2241	7.00528e+02	2.24100e+03	0.0213452	700.0
2251	7.00482e+02	2.25100e+03	0.0215434	700.0
2261	7.00455e+02	2.26100e+03	0.0214137	700.0
2271	7.00429e+02	2.27100e+03	0.0212255	700.0
2281	7.00401e+02	2.28100e+03	0.0218822	700.0
2291	7.00377e+02	2.29100e+03	0.0216332	700.0
2301	7.00365e+02	2.30100e+03	0.0214732	700.0
2311	7.00341e+02	2.31100e+03	0.0215522	700.0
2321	7.00336e+02	2.32100e+03	0.0215074	700.0
2331	7.00318e+02	2.33100e+03	0.0214749	700.0
2341	7.00303e+02	2.34100e+03	0.0217243	700.0
2351	7.00287e+02	2.35100e+03	0.0217832	700.0
2361	7.00261e+02	2.36100e+03	0.0216642	700.0
2371	7.00256e+02	2.37100e+03	0.0216234	700.0
2381	7.00239e+02	2.38100e+03	0.0215276	700.0
2391	7.00220e+02	2.39100e+03	0.0215326	700.0
2401	7.00216e+02	2.40100e+03	0.0216573	700.0
2411	7.00200e+02	2.41100e+03	0.0216784	700.0
2421	7.00193e+02	2.42100e+03	0.0218807	700.0
2431	7.00180e+02	2.43100e+03	0.0215329	700.0
2441	7.00169e+02	2.44100e+03	0.0214031	700.0
2451	7.00154e+02	2.45100e+03	0.0215025	700.0
2461	7.00144e+02	2.46100e+03	0.0215471	700.0
2471	7.00142e+02	2.47100e+03	0.0212747	700.0
2481	7.00135e+02	2.48100e+03	0.0212747	700.0
2491	7.00125e+02	2.49100e+03	0.0217869	700.0
2501	7.00116e+02	2.50100e+03	0.0214687	700.0
2511	7.00110e+02	2.51100e+03	0.0215433	700.0
2521	7.00102e+02	2.52100e+03	0.0214321	700.0
2531	7.00106e+02	2.53100e+03	0.0214686	700.0
2541	7.00087e+02	2.54100e+03	0.0215205	700.0
2551	7.00102e+02	2.55100e+03	0.0212732	700.0
2561	7.00094e+02	2.56100e+03	0.0215102	700.0
2571	7.00092e+02	2.57100e+03	0.021652	700.0
2581	7.00082e+02	2.58100e+03	0.021374	700.0
2591	7.00094e+02	2.59100e+03	0.0214402	700.0
2601	7.00089e+02	2.60100e+03	0.0214594	700.0
2611	7.00075e+02	2.61100e+03	0.0214067	700.0
2621	7.00073e+02	2.62100e+03	0.0215276	700.0
2631	7.00076e+02	2.63100e+03	0.0213947	700.0
2641	7.00070e+02	2.64100e+03	0.0214531	700.0
2651	7.00074e+02	2.65100e+03	0.0213073	700.0
2661	7.00076e+02	2.66100e+03	0.0213732	700.0
2671	7.00064e+02	2.67100e+03	0.021418	700.0
2681	7.00060e+02	2.68100e+03	0.0213544	700.0
2691	7.00069e+02	2.69100e+03	0.0211645	700.0
2701	7.00068e+02	2.70100e+03	0.0212884	700.0
2711	7.00059e+02	2.71100e+03	0.0213562	700.0
2720	7.00059e+02	2.72000e+03	0.0212683	700.0