File: Experiments/TGA/TUBS/tga_nonisotherm/tga_dynamic_n2low20_dyn30_piece_3mg_r1.txt
Index	Ts	t	Weight	Tr
[#]	[°C]	[s]	[mg]	[°C]
681	1.30394e+02	6.81000e+02	3.02487	130.5
691	1.35477e+02	6.91000e+02	3.0247	135.5
701	1.40558e+02	7.01000e+02	3.02468	140.5
711	1.45629e+02	7.11000e+02	3.02409	145.5
721	1.50712e+02	7.21000e+02	3.02447	150.5
731	1.55787e+02	7.31000e+02	3.02384	155.5
741	1.60884e+02	7.41000e+02	3.02343	160.5
751	1.65956e+02	7.51000e+02	3.02302	165.5
761	1.71053e+02	7.61000e+02	3.02267	170.5
771	1.76160e+02	7.71000e+02	3.02211	175.5
781	1.81266e+02	7.81000e+02	3.02137	180.5
791	1.86360e+02	7.91000e+02	3.02061	185.5
801	1.91469e+02	8.01000e+02	3.01979	190.5
811	1.96581e+02	8.11000e+02	3.01832	195.5
821	2.01688e+02	8.21000e+02	3.01625	200.5
831	2.06820e+02	8.31000e+02	3.01353	205.5
841	2.11930e+02	8.41000e+02	3.01028	210.5
851	2.17059e+02	8.51000e+02	3.00677	215.5
861	2.22180e+02	8.61000e+02	3.00315	220.5
871	2.27300e+02	8.71000e+02	2.99977	225.5
881	2.32415e+02	8.81000e+02	2.99624	230.5
891	2.37530e+02	8.91000e+02	2.99241	235.5
901	2.42658e+02	9.01000e+02	2.98845	240.5
911	2.47831e+02	9.11000e+02	2.98422	245.5
921	2.52982e+02	9.21000e+02	2.98003	250.5
931	2.58153e+02	9.31000e+02	2.97575	255.5
941	2.63301e+02	9.41000e+02	2.97105	260.5
951	2.68517e+02	9.51000e+02	2.96617	265.5
961	2.73742e+02	9.61000e+02	2.96114	270.5
971	2.78852e+02	9.71000e+02	2.95542	275.5
981	2.84006e+02	9.81000e+02	2.94667	280.5
991	2.89087e+02	9.91000e+02	2.93726	285.5
1001	2.94124e+02	1.00100e+03	2.92733	290.5
1011	2.99202e+02	1.01100e+03	2.91778	295.5
1021	3.04299e+02	1.02100e+03	2.90686	300.5
1031	3.09307e+02	1.03100e+03	2.89421	305.5
1041	3.14294e+02	1.04100e+03	2.87937	310.5
1051	3.19167e+02	1.05100e+03	2.86263	315.5
1061	3.23947e+02	1.06100e+03	2.84419	320.5
1071	3.28690e+02	1.07100e+03	2.82486	325.5
1081	3.33082e+02	1.08100e+03	2.80304	330.5
1091	3.37978e+02	1.09100e+03	2.77791	335.5
1101	3.42943e+02	1.10100e+03	2.74765	340.5
1111	3.47897e+02	1.11100e+03	2.70884	345.5
1121	3.52835e+02	1.12100e+03	2.65581	350.5
1131	3.57835e+02	1.13100e+03	2.58213	355.5
1141	3.62763e+02	1.14100e+03	2.4771	360.5
1151	3.67958e+02	1.15100e+03	2.33939	365.5
1161	3.72861e+02	1.16100e+03	2.16764	370.5
1171	3.77721e+02	1.17100e+03	1.96448	375.5
1181	3.82635e+02	1.18100e+03	1.73247	380.5
1191	3.87576e+02	1.19100e+03	1.48153	385.5
1201	3.92646e+02	1.20100e+03	1.22388	390.5
1211	3.97649e+02	1.21100e+03	0.966372	395.5
1221	4.02722e+02	1.22100e+03	0.70876	400.5
1231	4.07965e+02	1.23100e+03	0.46641	405.5
1241	4.13090e+02	1.24100e+03	0.278703	410.5
1251	4.18132e+02	1.25100e+03	0.15345	415.5
1261	4.23270e+02	1.26100e+03	0.0800299	420.5
1271	4.28370e+02	1.27100e+03	0.0389621	425.5
1281	4.33366e+02	1.28100e+03	0.0176088	430.5
1291	4.38504e+02	1.29100e+03	0.00543392	435.5
1301	4.43554e+02	1.30100e+03	-0.00159001	440.5
1311	4.48599e+02	1.31100e+03	-0.00654862	445.5
1321	4.53839e+02	1.32100e+03	-0.00917476	450.5
1331	4.58734e+02	1.33100e+03	-0.0105179	455.5
1341	4.63751e+02	1.34100e+03	-0.0109397	460.5
1351	4.68662e+02	1.35100e+03	-0.0111216	465.5
1361	4.73593e+02	1.36100e+03	-0.011622	470.5
1371	4.78617e+02	1.37100e+03	-0.0117911	475.5
1381	4.83568e+02	1.38100e+03	-0.0118446	480.5
1391	4.88696e+02	1.39100e+03	-0.011894	485.5
1401	4.93667e+02	1.40100e+03	-0.0122691	490.5
1411	4.98572e+02	1.41100e+03	-0.0124401	495.5
1421	5.03393e+02	1.42100e+03	-0.0125137	500.5
1431	5.08157e+02	1.43100e+03	-0.0125714	505.5
1441	5.12902e+02	1.44100e+03	-0.0124683	510.5
1451	5.17645e+02	1.45100e+03	-0.0127019	515.5
1461	5.22523e+02	1.46100e+03	-0.0128106	520.5
1471	5.27703e+02	1.47100e+03	-0.0129139	525.5
1481	5.32241e+02	1.48100e+03	-0.0128202	530.5
1491	5.36924e+02	1.49100e+03	-0.0130189	535.5
1501	5.41735e+02	1.50100e+03	-0.0132178	540.5
1511	5.46540e+02	1.51100e+03	-0.0131776	545.5
1521	5.51378e+02	1.52100e+03	-0.0132815	550.5
1531	5.56252e+02	1.53100e+03	-0.0133565	555.5
1541	5.61107e+02	1.54100e+03	-0.0135006	560.5
1551	5.66038e+02	1.55100e+03	-0.0137825	565.5
1561	5.71008e+02	1.56100e+03	-0.0139399	570.5
1571	5.75994e+02	1.57100e+03	-0.0141958	575.5
1581	5.81212e+02	1.58100e+03	-0.0142517	580.5
1591	5.86335e+02	1.59100e+03	-0.0143349	585.5
1601	5.91231e+02	1.60100e+03	-0.0143984	590.5
1611	5.96158e+02	1.61100e+03	-0.014507	595.5
1621	6.01051e+02	1.62100e+03	-0.014257	600.5
1631	6.06002e+02	1.63100e+03	-0.0142408	605.5
1641	6.10946e+02	1.64100e+03	-0.0145874	610.5
1651	6.16010e+02	1.65100e+03	-0.0143928	615.5
1661	6.21064e+02	1.66100e+03	-0.0143339	620.5
1671	6.27263e+02	1.67100e+03	-0.0146024	625.5
1681	6.31453e+02	1.68100e+03	-0.0148206	630.5
1691	6.36175e+02	1.69100e+03	-0.0146751	635.5
1701	6.41075e+02	1.70100e+03	-0.0148674	640.5
1711	6.46004e+02	1.71100e+03	-0.0149862	645.5
1721	6.50911e+02	1.72100e+03	-0.0151065	650.5
1731	6.55840e+02	1.73100e+03	-0.0152965	655.5
1741	6.60760e+02	1.74100e+03	-0.0155666	660.5
1751	6.65703e+02	1.75100e+03	-0.0155444	665.5
1761	6.70683e+02	1.76100e+03	-0.0153385	670.5
1771	6.75701e+02	1.77100e+03	-0.0154373	675.5
1781	6.80686e+02	1.78100e+03	-0.0153031	680.5
1791	6.85700e+02	1.79100e+03	-0.015476	685.5
1801	6.89343e+02	1.80100e+03	-0.0154935	690.5
1811	6.92801e+02	1.81100e+03	-0.0156998	695.5
1821	6.94659e+02	1.82100e+03	-0.0155331	700.0
1831	6.96194e+02	1.83100e+03	-0.0154633	700.0
1841	6.97375e+02	1.84100e+03	-0.015732	700.0
1851	6.98238e+02	1.85100e+03	-0.0156058	700.0
1861	6.98878e+02	1.86100e+03	-0.0156654	700.0
1871	6.99378e+02	1.87100e+03	-0.015858	700.0
1881	6.99747e+02	1.88100e+03	-0.0158931	700.0
1891	7.00049e+02	1.89100e+03	-0.0158445	700.0
1901	7.00310e+02	1.90100e+03	-0.0158197	700.0
1911	7.00497e+02	1.91100e+03	-0.015774	700.0
1921	7.00660e+02	1.92100e+03	-0.0158783	700.0
1931	7.00786e+02	1.93100e+03	-0.0158752	700.0
1941	7.00887e+02	1.94100e+03	-0.0158889	700.0
1951	7.00975e+02	1.95100e+03	-0.0159216	700.0
1961	7.01039e+02	1.96100e+03	-0.015892	700.0
1971	7.01096e+02	1.97100e+03	-0.0160467	700.0
1981	7.01134e+02	1.98100e+03	-0.0161267	700.0
1991	7.01185e+02	1.99100e+03	-0.0163568	700.0
2001	7.01206e+02	2.00100e+03	-0.0164031	700.0
2011	7.01234e+02	2.01100e+03	-0.0164304	700.0
2021	7.01255e+02	2.02100e+03	-0.0163752	700.0
2031	7.01275e+02	2.03100e+03	-0.0165116	700.0
2041	7.01290e+02	2.04100e+03	-0.0165095	700.0
2051	7.01297e+02	2.05100e+03	-0.0165176	700.0
2061	7.01318e+02	2.06100e+03	-0.0165947	700.0
2071	7.01336e+02	2.07100e+03	-0.016657	700.0
2081	7.01336e+02	2.08100e+03	-0.0168674	700.0
2091	7.01344e+02	2.09100e+03	-0.0167939	700.0
2101	7.01346e+02	2.10100e+03	-0.0168965	700.0
2111	7.01345e+02	2.11100e+03	-0.0170062	700.0
2121	7.01352e+02	2.12100e+03	-0.0170078	700.0
2131	7.01348e+02	2.13100e+03	-0.0170398	700.0
2141	7.01344e+02	2.14100e+03	-0.0169885	700.0
2151	7.01345e+02	2.15100e+03	-0.0171165	700.0
2161	7.01348e+02	2.16100e+03	-0.0172402	700.0
2171	7.01355e+02	2.17100e+03	-0.0171125	700.0
2181	7.01339e+02	2.18100e+03	-0.0171518	700.0
2191	7.01321e+02	2.19100e+03	-0.0172736	700.0
2201	7.01332e+02	2.20100e+03	-0.0173044	700.0
2211	7.01325e+02	2.21100e+03	-0.0173359	700.0
2221	7.01332e+02	2.22100e+03	-0.0172069	700.0
2231	7.01325e+02	2.23100e+03	-0.0172869	700.0
2241	7.01310e+02	2.24100e+03	-0.0173619	700.0
2251	7.01309e+02	2.25100e+03	-0.0174709	700.0
2261	7.01305e+02	2.26100e+03	-0.0175463	700.0
2271	7.01300e+02	2.27100e+03	-0.0175245	700.0
2281	7.01302e+02	2.28100e+03	-0.0176451	700.0
2291	7.01297e+02	2.29100e+03	-0.0176459	700.0
2301	7.01293e+02	2.30100e+03	-0.0176839	700.0
2311	7.01286e+02	2.31100e+03	-0.0176065	700.0
2321	7.01288e+02	2.32100e+03	-0.0178478	700.0
2331	7.01286e+02	2.33100e+03	-0.017872	700.0
2341	7.01281e+02	2.34100e+03	-0.017913	700.0
2351	7.01276e+02	2.35100e+03	-0.0179681	700.0
2361	7.01266e+02	2.36100e+03	-0.017922	700.0
2371	7.01274e+02	2.37100e+03	-0.0177575	700.0
2381	7.01275e+02	2.38100e+03	-0.0178357	700.0
2391	7.01278e+02	2.39100e+03	-0.0181395	700.0
2401	7.01278e+02	2.40100e+03	-0.0181489	700.0
2411	7.01266e+02	2.41100e+03	-0.0179487	700.0
2421	7.01267e+02	2.42100e+03	-0.0180769	700.0
2431	7.01269e+02	2.43100e+03	-0.0184744	700.0
2441	7.01267e+02	2.44100e+03	-0.0180812	700.0
2451	7.01266e+02	2.45100e+03	-0.0180691	700.0
2461	7.01262e+02	2.46100e+03	-0.0181588	700.0
2471	7.01265e+02	2.47100e+03	-0.0181396	700.0
2481	7.01259e+02	2.48100e+03	-0.0180166	700.0
2491	7.01269e+02	2.49100e+03	-0.0181596	700.0
2501	7.01264e+02	2.50100e+03	-0.0180952	700.0
2511	7.01256e+02	2.51100e+03	-0.0180676	700.0
2521	7.01254e+02	2.52100e+03	-0.0181813	700.0
2531	7.01247e+02	2.53100e+03	-0.0181504	700.0
2541	7.01238e+02	2.54100e+03	-0.0180243	700.0
2551	7.01240e+02	2.55100e+03	-0.0180585	700.0
2561	7.01241e+02	2.56100e+03	-0.0181463	700.0
2571	7.01224e+02	2.57100e+03	-0.018254	700.0
2581	7.01235e+02	2.58100e+03	-0.0182421	700.0
2591	7.01227e+02	2.59100e+03	-0.0181693	700.0
2601	7.01233e+02	2.60100e+03	-0.0182979	700.0
2611	7.01234e+02	2.61100e+03	-0.0182314	700.0
2621	7.01229e+02	2.62100e+03	-0.0182659	700.0
2631	7.01226e+02	2.63100e+03	-0.0183712	700.0
2641	7.01225e+02	2.64100e+03	-0.0181963	700.0
2651	7.01230e+02	2.65100e+03	-0.0181137	700.0
2661	7.01234e+02	2.66100e+03	-0.0183296	700.0
2671	7.01231e+02	2.67100e+03	-0.0184504	700.0
2681	7.01225e+02	2.68100e+03	-0.0184232	700.0
2691	7.01222e+02	2.69100e+03	-0.0181924	700.0
2701	7.01231e+02	2.70100e+03	-0.018188	700.0
2711	7.01221e+02	2.71100e+03	-0.0182295	700.0
2720	7.01219e+02	2.72000e+03	-0.0183278	700.0