File: Experiments/TGA/TUBS/tga_nonisotherm/tga_dynamic_n2_dyn20_powder_2mg_r1.txt
index	ts	t	weight	tr
[#]	[°C]	[s]	[mg]	[°C]
723	1.31133e+02	7.23000e+02	2.02239e+00	1.31000e+02
733	1.34479e+02	7.33000e+02	2.02227e+00	1.34333e+02
743	1.37854e+02	7.43000e+02	2.02192e+00	1.37667e+02
753	1.41231e+02	7.53000e+02	2.02140e+00	1.41000e+02
763	1.44586e+02	7.63000e+02	2.02092e+00	1.44333e+02
773	1.47966e+02	7.73000e+02	2.02016e+00	1.47667e+02
783	1.51331e+02	7.83000e+02	2.01921e+00	1.51000e+02
793	1.54734e+02	7.93000e+02	2.01805e+00	1.54333e+02
803	1.58110e+02	8.03000e+02	2.01692e+00	1.57667e+02
813	1.61490e+02	8.13000e+02	2.01552e+00	1.61000e+02
823	1.64883e+02	8.23000e+02	2.01416e+00	1.64333e+02
833	1.68252e+02	8.33000e+02	2.01259e+00	1.67667e+02
843	1.71646e+02	8.43000e+02	2.01049e+00	1.71000e+02
853	1.75039e+02	8.53000e+02	2.00748e+00	1.74333e+02
863	1.78415e+02	8.63000e+02	2.00352e+00	1.77667e+02
873	1.81817e+02	8.73000e+02	1.99832e+00	1.81000e+02
883	1.85221e+02	8.83000e+02	1.99211e+00	1.84333e+02
893	1.88613e+02	8.93000e+02	1.98489e+00	1.87667e+02
903	1.91994e+02	9.03000e+02	1.97757e+00	1.91000e+02
913	1.95406e+02	9.13000e+02	1.97028e+00	1.94333e+02
923	1.98791e+02	9.23000e+02	1.96376e+00	1.97667e+02
933	2.02184e+02	9.33000e+02	1.95859e+00	2.01000e+02
943	2.05575e+02	9.43000e+02	1.95494e+00	2.04333e+02
953	2.08990e+02	9.53000e+02	1.95236e+00	2.07667e+02
963	2.12379e+02	9.63000e+02	1.95045e+00	2.11000e+02
973	2.15771e+02	9.73000e+02	1.94887e+00	2.14333e+02
983	2.19166e+02	9.83000e+02	1.94724e+00	2.17667e+02
993	2.22543e+02	9.93000e+02	1.94566e+00	2.21000e+02
1003	2.25944e+02	1.00300e+03	1.94411e+00	2.24333e+02
1013	2.29368e+02	1.01300e+03	1.94219e+00	2.27667e+02
1023	2.32809e+02	1.02300e+03	1.94065e+00	2.31000e+02
1033	2.36215e+02	1.03300e+03	1.93922e+00	2.34333e+02
1043	2.39611e+02	1.04300e+03	1.93802e+00	2.37667e+02
1053	2.42954e+02	1.05300e+03	1.93706e+00	2.41000e+02
1063	2.46270e+02	1.06300e+03	1.93603e+00	2.44333e+02
1073	2.49641e+02	1.07300e+03	1.93506e+00	2.47667e+02
1083	2.53045e+02	1.08300e+03	1.93431e+00	2.51000e+02
1093	2.56437e+02	1.09300e+03	1.93345e+00	2.54333e+02
1103	2.59796e+02	1.10300e+03	1.93260e+00	2.57667e+02
1113	2.63150e+02	1.11300e+03	1.93173e+00	2.61000e+02
1123	2.66522e+02	1.12300e+03	1.93081e+00	2.64333e+02
1133	2.69870e+02	1.13300e+03	1.92973e+00	2.67667e+02
1143	2.73228e+02	1.14300e+03	1.92833e+00	2.71000e+02
1153	2.76583e+02	1.15300e+03	1.92663e+00	2.74333e+02
1163	2.79939e+02	1.16300e+03	1.92451e+00	2.77667e+02
1173	2.83301e+02	1.17300e+03	1.92186e+00	2.81000e+02
1183	2.86655e+02	1.18300e+03	1.91872e+00	2.84333e+02
1193	2.90006e+02	1.19300e+03	1.91473e+00	2.87667e+02
1203	2.93358e+02	1.20300e+03	1.90972e+00	2.91000e+02
1213	2.96687e+02	1.21300e+03	1.90348e+00	2.94333e+02
1223	3.00036e+02	1.22300e+03	1.89625e+00	2.97667e+02
1233	3.03363e+02	1.23300e+03	1.88818e+00	3.01000e+02
1243	3.06732e+02	1.24300e+03	1.87914e+00	3.04333e+02
1253	3.10075e+02	1.25300e+03	1.86930e+00	3.07667e+02
1263	3.13518e+02	1.26300e+03	1.85919e+00	3.11000e+02
1273	3.16965e+02	1.27300e+03	1.84893e+00	3.14333e+02
1283	3.20376e+02	1.28300e+03	1.83846e+00	3.17667e+02
1293	3.23857e+02	1.29300e+03	1.82734e+00	3.21000e+02
1303	3.27259e+02	1.30300e+03	1.81493e+00	3.24333e+02
1313	3.30636e+02	1.31300e+03	1.80003e+00	3.27667e+02
1323	3.34046e+02	1.32300e+03	1.78204e+00	3.31000e+02
1333	3.37433e+02	1.33300e+03	1.75970e+00	3.34333e+02
1343	3.40958e+02	1.34300e+03	1.73224e+00	3.37667e+02
1353	3.44297e+02	1.35300e+03	1.69817e+00	3.41000e+02
1363	3.47646e+02	1.36300e+03	1.65688e+00	3.44333e+02
1373	3.50959e+02	1.37300e+03	1.60664e+00	3.47667e+02
1383	3.54318e+02	1.38300e+03	1.54782e+00	3.51000e+02
1393	3.57580e+02	1.39300e+03	1.47927e+00	3.54333e+02
1403	3.60845e+02	1.40300e+03	1.40166e+00	3.57667e+02
1413	3.64223e+02	1.41300e+03	1.31544e+00	3.61000e+02
1423	3.67577e+02	1.42300e+03	1.22158e+00	3.64333e+02
1433	3.70877e+02	1.43300e+03	1.12059e+00	3.67667e+02
1443	3.74263e+02	1.44300e+03	1.01532e+00	3.71000e+02
1453	3.77648e+02	1.45300e+03	9.06646e-01	3.74333e+02
1463	3.81137e+02	1.46300e+03	7.94758e-01	3.77667e+02
1473	3.84500e+02	1.47300e+03	6.84341e-01	3.81000e+02
1483	3.87941e+02	1.48300e+03	5.80106e-01	3.84333e+02
1493	3.91457e+02	1.49300e+03	4.84335e-01	3.87667e+02
1503	3.94997e+02	1.50300e+03	3.98650e-01	3.91000e+02
1513	3.98464e+02	1.51300e+03	3.24526e-01	3.94333e+02
1523	4.01778e+02	1.52300e+03	2.61754e-01	3.97667e+02
1533	4.05177e+02	1.53300e+03	2.10532e-01	4.01000e+02
1543	4.08406e+02	1.54300e+03	1.69528e-01	4.04333e+02
1553	4.11725e+02	1.55300e+03	1.37790e-01	4.07667e+02
1563	4.15287e+02	1.56300e+03	1.13468e-01	4.11000e+02
1573	4.18807e+02	1.57300e+03	9.59328e-02	4.14333e+02
1583	4.22320e+02	1.58300e+03	8.29736e-02	4.17667e+02
1593	4.25455e+02	1.59300e+03	7.43046e-02	4.21000e+02
1603	4.28475e+02	1.60300e+03	6.82485e-02	4.24333e+02
1613	4.31567e+02	1.61300e+03	6.40241e-02	4.27667e+02
1623	4.34823e+02	1.62300e+03	6.12597e-02	4.31000e+02
1633	4.37931e+02	1.63300e+03	5.95921e-02	4.34333e+02
1643	4.41372e+02	1.64300e+03	5.83073e-02	4.37667e+02
1653	4.44687e+02	1.65300e+03	5.76447e-02	4.41000e+02
1663	4.47940e+02	1.66300e+03	5.72837e-02	4.44333e+02
1673	4.51285e+02	1.67300e+03	5.69963e-02	4.47667e+02
1683	4.54397e+02	1.68300e+03	5.68574e-02	4.51000e+02
1693	4.57391e+02	1.69300e+03	5.67304e-02	4.54333e+02
1703	4.60479e+02	1.70300e+03	5.67772e-02	4.57667e+02
1713	4.63714e+02	1.71300e+03	5.65911e-02	4.61000e+02
1723	4.66818e+02	1.72300e+03	5.64376e-02	4.64333e+02
1733	4.69924e+02	1.73300e+03	5.63721e-02	4.67667e+02
1743	4.73190e+02	1.74300e+03	5.63414e-02	4.71000e+02
1753	4.76500e+02	1.75300e+03	5.63323e-02	4.74333e+02
1763	4.79810e+02	1.76300e+03	5.62256e-02	4.77667e+02
1773	4.83216e+02	1.77300e+03	5.61848e-02	4.81000e+02
1783	4.86638e+02	1.78300e+03	5.62135e-02	4.84333e+02
1793	4.90033e+02	1.79300e+03	5.64020e-02	4.87667e+02
1803	4.93309e+02	1.80300e+03	5.62446e-02	4.91000e+02
1813	4.96511e+02	1.81300e+03	5.62643e-02	4.94333e+02
1823	4.99762e+02	1.82300e+03	5.62361e-02	4.97667e+02
1833	5.02990e+02	1.83300e+03	5.60954e-02	5.01000e+02
1843	5.06220e+02	1.84300e+03	5.60862e-02	5.04333e+02
1853	5.09471e+02	1.85300e+03	5.60104e-02	5.07667e+02
1863	5.12616e+02	1.86300e+03	5.59222e-02	5.11000e+02
1873	5.15786e+02	1.87300e+03	5.59487e-02	5.14333e+02
1883	5.18999e+02	1.88300e+03	5.60095e-02	5.17667e+02
1893	5.22220e+02	1.89300e+03	5.59832e-02	5.21000e+02
1903	5.25460e+02	1.90300e+03	5.57848e-02	5.24333e+02
1913	5.28731e+02	1.91300e+03	5.57971e-02	5.27667e+02
1923	5.32028e+02	1.92300e+03	5.57625e-02	5.31000e+02
1933	5.35388e+02	1.93300e+03	5.58041e-02	5.34333e+02
1943	5.38719e+02	1.94300e+03	5.58285e-02	5.37667e+02
1953	5.42133e+02	1.95300e+03	5.57231e-02	5.41000e+02
1963	5.45437e+02	1.96300e+03	5.58046e-02	5.44333e+02
1973	5.48749e+02	1.97300e+03	5.58848e-02	5.47667e+02
1983	5.52023e+02	1.98300e+03	5.57512e-02	5.51000e+02
1993	5.55299e+02	1.99300e+03	5.55870e-02	5.54333e+02
2003	5.58635e+02	2.00300e+03	5.57223e-02	5.57667e+02
2013	5.61918e+02	2.01300e+03	5.57660e-02	5.61000e+02
2023	5.65206e+02	2.02300e+03	5.56397e-02	5.64333e+02
2033	5.68495e+02	2.03300e+03	5.57246e-02	5.67667e+02
2043	5.71784e+02	2.04300e+03	5.56817e-02	5.71000e+02
2053	5.75059e+02	2.05300e+03	5.56118e-02	5.74333e+02
2063	5.78325e+02	2.06300e+03	5.55733e-02	5.77667e+02
2073	5.81510e+02	2.07300e+03	5.56500e-02	5.81000e+02
2083	5.84760e+02	2.08300e+03	5.56368e-02	5.84333e+02
2093	5.88021e+02	2.09300e+03	5.56970e-02	5.87667e+02
2103	5.91285e+02	2.10300e+03	5.57041e-02	5.91000e+02
2113	5.94572e+02	2.11300e+03	5.55736e-02	5.94333e+02
2123	5.97863e+02	2.12300e+03	5.55001e-02	5.97667e+02
2133	6.01158e+02	2.13300e+03	5.56315e-02	6.01000e+02
2143	6.04444e+02	2.14300e+03	5.56838e-02	6.04333e+02
2153	6.07756e+02	2.15300e+03	5.55252e-02	6.07667e+02
2163	6.11050e+02	2.16300e+03	5.56360e-02	6.11000e+02
2173	6.14356e+02	2.17300e+03	5.57112e-02	6.14333e+02
2183	6.17662e+02	2.18300e+03	5.57369e-02	6.17667e+02
2193	6.20965e+02	2.19300e+03	5.54961e-02	6.21000e+02
2203	6.24279e+02	2.20300e+03	5.56558e-02	6.24333e+02
2213	6.27581e+02	2.21300e+03	5.56795e-02	6.27667e+02
2223	6.30893e+02	2.22300e+03	5.56496e-02	6.31000e+02
2233	6.34207e+02	2.23300e+03	5.55892e-02	6.34333e+02
2243	6.37544e+02	2.24300e+03	5.56452e-02	6.37667e+02
2253	6.40883e+02	2.25300e+03	5.55565e-02	6.41000e+02
2263	6.44227e+02	2.26300e+03	5.55522e-02	6.44333e+02
2273	6.47525e+02	2.27300e+03	5.55218e-02	6.47667e+02
2283	6.50836e+02	2.28300e+03	5.54709e-02	6.51000e+02
2293	6.54136e+02	2.29300e+03	5.54571e-02	6.54333e+02
2303	6.57457e+02	2.30300e+03	5.56489e-02	6.57667e+02
2313	6.60786e+02	2.31300e+03	5.56191e-02	6.61000e+02
2323	6.64108e+02	2.32300e+03	5.55282e-02	6.64333e+02
2333	6.67424e+02	2.33300e+03	5.54491e-02	6.67667e+02
2343	6.70696e+02	2.34300e+03	5.54427e-02	6.71000e+02
2353	6.74008e+02	2.35300e+03	5.53875e-02	6.74333e+02
2363	6.77320e+02	2.36300e+03	5.54521e-02	6.77667e+02
2373	6.80644e+02	2.37300e+03	5.54863e-02	6.81000e+02
2383	6.83961e+02	2.38300e+03	5.54265e-02	6.84333e+02
2393	6.87309e+02	2.39300e+03	5.52280e-02	6.87667e+02
2403	6.90633e+02	2.40300e+03	5.52744e-02	6.91000e+02
2413	6.92886e+02	2.41300e+03	5.53583e-02	6.94333e+02
2423	6.94732e+02	2.42300e+03	5.53472e-02	6.97667e+02
2430	6.95730e+02	2.43000e+03	5.53014e-02	7.00000e+02