File: Experiments/TGA/TUBS/tga_nonisotherm/tga_dynamic_n2low20_dyn30_powder_3mg_r3.txt
Index	Ts	t	Weight	Tr
[#]	[°C]	[s]	[mg]	[°C]
680	1.30273e+02	6.80000e+02	3.03773	130.0
690	1.35388e+02	6.90000e+02	3.03717	135.0
700	1.40474e+02	7.00000e+02	3.03653	140.0
710	1.45565e+02	7.10000e+02	3.03507	145.0
720	1.50650e+02	7.20000e+02	3.03409	150.0
730	1.55736e+02	7.30000e+02	3.03188	155.0
740	1.60818e+02	7.40000e+02	3.02968	160.0
750	1.65901e+02	7.50000e+02	3.02741	165.0
760	1.70994e+02	7.60000e+02	3.02503	170.0
770	1.76109e+02	7.70000e+02	3.02232	175.0
780	1.81220e+02	7.80000e+02	3.01877	180.0
790	1.86329e+02	7.90000e+02	3.01448	185.0
800	1.91443e+02	8.00000e+02	3.00839	190.0
810	1.96595e+02	8.10000e+02	3.00053	195.0
820	2.01723e+02	8.20000e+02	2.99151	200.0
830	2.06862e+02	8.30000e+02	2.9833	205.0
840	2.11975e+02	8.40000e+02	2.97725	210.0
850	2.17130e+02	8.50000e+02	2.97325	215.0
860	2.22238e+02	8.60000e+02	2.97021	220.0
870	2.27404e+02	8.70000e+02	2.96751	225.0
880	2.32581e+02	8.80000e+02	2.96487	230.0
890	2.37778e+02	8.90000e+02	2.96191	235.0
900	2.42932e+02	9.00000e+02	2.95847	240.0
910	2.48093e+02	9.10000e+02	2.95506	245.0
920	2.53186e+02	9.20000e+02	2.95181	250.0
930	2.58267e+02	9.30000e+02	2.94887	255.0
940	2.63390e+02	9.40000e+02	2.94597	260.0
950	2.68389e+02	9.50000e+02	2.94301	265.0
960	2.73498e+02	9.60000e+02	2.93993	270.0
970	2.78585e+02	9.70000e+02	2.93619	275.0
980	2.83686e+02	9.80000e+02	2.93143	280.0
990	2.88694e+02	9.90000e+02	2.92523	285.0
1000	2.93735e+02	1.00000e+03	2.91612	290.0
1010	2.98892e+02	1.01000e+03	2.90401	295.0
1020	3.04049e+02	1.02000e+03	2.88768	300.0
1030	3.09037e+02	1.03000e+03	2.86753	305.0
1040	3.13876e+02	1.04000e+03	2.84406	310.0
1050	3.18438e+02	1.05000e+03	2.81838	315.0
1060	3.23098e+02	1.06000e+03	2.79161	320.0
1070	3.27955e+02	1.07000e+03	2.7623	325.0
1080	3.32796e+02	1.08000e+03	2.72783	330.0
1090	3.37767e+02	1.09000e+03	2.68447	335.0
1100	3.42808e+02	1.10000e+03	2.62744	340.0
1110	3.47864e+02	1.11000e+03	2.5517	345.0
1120	3.52875e+02	1.12000e+03	2.45293	350.0
1130	3.57849e+02	1.13000e+03	2.32937	355.0
1140	3.62807e+02	1.14000e+03	2.17862	360.0
1150	3.67794e+02	1.15000e+03	2.00446	365.0
1160	3.72785e+02	1.16000e+03	1.80745	370.0
1170	3.77716e+02	1.17000e+03	1.59137	375.0
1180	3.82725e+02	1.18000e+03	1.36131	380.0
1190	3.87716e+02	1.19000e+03	1.12695	385.0
1200	3.92772e+02	1.20000e+03	0.900953	390.0
1210	3.97864e+02	1.21000e+03	0.685703	395.0
1220	4.02951e+02	1.22000e+03	0.49602	400.0
1230	4.08106e+02	1.23000e+03	0.343596	405.0
1240	4.13251e+02	1.24000e+03	0.230323	410.0
1250	4.18282e+02	1.25000e+03	0.150735	415.0
1260	4.23287e+02	1.26000e+03	0.0985702	420.0
1270	4.28577e+02	1.27000e+03	0.0665746	425.0
1280	4.33605e+02	1.28000e+03	0.0492826	430.0
1290	4.38594e+02	1.29000e+03	0.0399953	435.0
1300	4.43620e+02	1.30000e+03	0.0354368	440.0
1310	4.48466e+02	1.31000e+03	0.0326972	445.0
1320	4.53326e+02	1.32000e+03	0.0315547	450.0
1330	4.58242e+02	1.33000e+03	0.0309766	455.0
1340	4.63179e+02	1.34000e+03	0.030895	460.0
1350	4.68187e+02	1.35000e+03	0.0307596	465.0
1360	4.73088e+02	1.36000e+03	0.0304853	470.0
1370	4.77995e+02	1.37000e+03	0.0304699	475.0
1380	4.82825e+02	1.38000e+03	0.0305343	480.0
1390	4.87800e+02	1.39000e+03	0.0305483	485.0
1400	4.92829e+02	1.40000e+03	0.0303434	490.0
1410	4.97765e+02	1.41000e+03	0.030125	495.0
1420	5.03158e+02	1.42000e+03	0.0300997	500.0
1430	5.07876e+02	1.43000e+03	0.0300625	505.0
1440	5.12701e+02	1.44000e+03	0.0301179	510.0
1450	5.17570e+02	1.45000e+03	0.0301077	515.0
1460	5.22400e+02	1.46000e+03	0.0298261	520.0
1470	5.27345e+02	1.47000e+03	0.0296819	525.0
1480	5.32188e+02	1.48000e+03	0.0298182	530.0
1490	5.37115e+02	1.49000e+03	0.0296692	535.0
1500	5.41929e+02	1.50000e+03	0.0294854	540.0
1510	5.46805e+02	1.51000e+03	0.0295607	545.0
1520	5.51815e+02	1.52000e+03	0.0295778	550.0
1530	5.56666e+02	1.53000e+03	0.0295098	555.0
1540	5.61319e+02	1.54000e+03	0.0293517	560.0
1550	5.66152e+02	1.55000e+03	0.029195	565.0
1560	5.71064e+02	1.56000e+03	0.0290077	570.0
1570	5.75976e+02	1.57000e+03	0.0288168	575.0
1580	5.80929e+02	1.58000e+03	0.0287857	580.0
1590	5.85826e+02	1.59000e+03	0.0286384	585.0
1600	5.90774e+02	1.60000e+03	0.028587	590.0
1610	5.95686e+02	1.61000e+03	0.0284953	595.0
1620	6.00575e+02	1.62000e+03	0.0286811	600.0
1630	6.05537e+02	1.63000e+03	0.0286958	605.0
1640	6.10518e+02	1.64000e+03	0.0282306	610.0
1650	6.15609e+02	1.65000e+03	0.0284316	615.0
1660	6.20317e+02	1.66000e+03	0.0284365	620.0
1670	6.25228e+02	1.67000e+03	0.0281542	625.0
1680	6.30154e+02	1.68000e+03	0.0280834	630.0
1690	6.35065e+02	1.69000e+03	0.0281897	635.0
1700	6.39988e+02	1.70000e+03	0.0280603	640.0
1710	6.44912e+02	1.71000e+03	0.0277244	645.0
1720	6.49857e+02	1.72000e+03	0.0278302	650.0
1730	6.54779e+02	1.73000e+03	0.0276777	655.0
1740	6.59720e+02	1.74000e+03	0.0273594	660.0
1750	6.64665e+02	1.75000e+03	0.0273258	665.0
1760	6.69592e+02	1.76000e+03	0.0275393	670.0
1770	6.74543e+02	1.77000e+03	0.0275514	675.0
1780	6.79490e+02	1.78000e+03	0.0276121	680.0
1790	6.84447e+02	1.79000e+03	0.0275847	685.0
1800	6.88143e+02	1.80000e+03	0.0276904	690.0
1810	6.91141e+02	1.81000e+03	0.0274357	695.0
1820	6.93321e+02	1.82000e+03	0.0274568	700.0
1830	6.94939e+02	1.83000e+03	0.0276308	700.0
1840	6.96134e+02	1.84000e+03	0.0273521	700.0
1850	6.97022e+02	1.85000e+03	0.0274169	700.0
1860	6.97715e+02	1.86000e+03	0.0274383	700.0
1870	6.98270e+02	1.87000e+03	0.0274013	700.0
1880	6.98682e+02	1.88000e+03	0.0271969	700.0
1890	6.99021e+02	1.89000e+03	0.0273384	700.0
1900	6.99269e+02	1.90000e+03	0.0273189	700.0
1910	6.99481e+02	1.91000e+03	0.0272998	700.0
1920	6.99657e+02	1.92000e+03	0.0273238	700.0
1930	6.99792e+02	1.93000e+03	0.0272053	700.0
1940	6.99903e+02	1.94000e+03	0.0271433	700.0
1950	6.99992e+02	1.95000e+03	0.0270857	700.0
1960	7.00073e+02	1.96000e+03	0.0271686	700.0
1970	7.00132e+02	1.97000e+03	0.027129	700.0
1980	7.00186e+02	1.98000e+03	0.026993	700.0
1990	7.00231e+02	1.99000e+03	0.0268043	700.0
2000	7.00270e+02	2.00000e+03	0.0267229	700.0
2010	7.00306e+02	2.01000e+03	0.0267575	700.0
2020	7.00334e+02	2.02000e+03	0.0268523	700.0
2030	7.00369e+02	2.03000e+03	0.0266951	700.0
2040	7.00391e+02	2.04000e+03	0.0266211	700.0
2050	7.00407e+02	2.05000e+03	0.0265338	700.0
2060	7.00425e+02	2.06000e+03	0.0264737	700.0
2070	7.00458e+02	2.07000e+03	0.0264936	700.0
2080	7.00468e+02	2.08000e+03	0.0263852	700.0
2090	7.00460e+02	2.09000e+03	0.0263304	700.0
2100	7.00480e+02	2.10000e+03	0.0261807	700.0
2110	7.00491e+02	2.11000e+03	0.02607	700.0
2120	7.00493e+02	2.12000e+03	0.0261035	700.0
2130	7.00487e+02	2.13000e+03	0.0259892	700.0
2140	7.00492e+02	2.14000e+03	0.0260956	700.0
2150	7.00499e+02	2.15000e+03	0.0259798	700.0
2160	7.00495e+02	2.16000e+03	0.0258091	700.0
2170	7.00501e+02	2.17000e+03	0.0260235	700.0
2180	7.00488e+02	2.18000e+03	0.0261358	700.0
2190	7.00493e+02	2.19000e+03	0.0260855	700.0
2200	7.00490e+02	2.20000e+03	0.0260387	700.0
2210	7.00491e+02	2.21000e+03	0.0261561	700.0
2220	7.00469e+02	2.22000e+03	0.0261602	700.0
2230	7.00482e+02	2.23000e+03	0.0261856	700.0
2240	7.00471e+02	2.24000e+03	0.0261697	700.0
2250	7.00461e+02	2.25000e+03	0.0260298	700.0
2260	7.00460e+02	2.26000e+03	0.0259842	700.0
2270	7.00463e+02	2.27000e+03	0.0259652	700.0
2280	7.00459e+02	2.28000e+03	0.0257555	700.0
2290	7.00451e+02	2.29000e+03	0.0259559	700.0
2300	7.00450e+02	2.30000e+03	0.0259813	700.0
2310	7.00442e+02	2.31000e+03	0.0261235	700.0
2320	7.00442e+02	2.32000e+03	0.0259916	700.0
2330	7.00437e+02	2.33000e+03	0.0260212	700.0
2340	7.00424e+02	2.34000e+03	0.0259689	700.0
2350	7.00436e+02	2.35000e+03	0.0258831	700.0
2360	7.00436e+02	2.36000e+03	0.0258483	700.0
2370	7.00427e+02	2.37000e+03	0.0260087	700.0
2380	7.00432e+02	2.38000e+03	0.0259841	700.0
2390	7.00421e+02	2.39000e+03	0.0257866	700.0
2400	7.00420e+02	2.40000e+03	0.0258672	700.0
2410	7.00425e+02	2.41000e+03	0.025914	700.0
2420	7.00414e+02	2.42000e+03	0.0259672	700.0
2430	7.00417e+02	2.43000e+03	0.0254966	700.0
2440	7.00410e+02	2.44000e+03	0.0259325	700.0
2450	7.00408e+02	2.45000e+03	0.0261384	700.0
2460	7.00409e+02	2.46000e+03	0.0259396	700.0
2470	7.00408e+02	2.47000e+03	0.0258791	700.0
2480	7.00402e+02	2.48000e+03	0.0260323	700.0
2490	7.00404e+02	2.49000e+03	0.025969	700.0
2500	7.00389e+02	2.50000e+03	0.0259667	700.0
2510	7.00395e+02	2.51000e+03	0.0260566	700.0
2520	7.00394e+02	2.52000e+03	0.0260661	700.0
2530	7.00393e+02	2.53000e+03	0.0261038	700.0
2540	7.00398e+02	2.54000e+03	0.0261366	700.0
2550	7.00388e+02	2.55000e+03	0.0260848	700.0
2560	7.00397e+02	2.56000e+03	0.0260597	700.0
2570	7.00398e+02	2.57000e+03	0.0259942	700.0
2580	7.00393e+02	2.58000e+03	0.0259629	700.0
2590	7.00384e+02	2.59000e+03	0.0259392	700.0
2600	7.00391e+02	2.60000e+03	0.0258158	700.0
2610	7.00385e+02	2.61000e+03	0.0257226	700.0
2620	7.00380e+02	2.62000e+03	0.0256547	700.0
2630	7.00391e+02	2.63000e+03	0.0256635	700.0
2640	7.00386e+02	2.64000e+03	0.0258606	700.0
2650	7.00384e+02	2.65000e+03	0.025943	700.0
2660	7.00386e+02	2.66000e+03	0.0259143	700.0
2670	7.00384e+02	2.67000e+03	0.025808	700.0
2680	7.00385e+02	2.68000e+03	0.0258699	700.0
2690	7.00383e+02	2.69000e+03	0.025938	700.0
2700	7.00383e+02	2.70000e+03	0.0259782	700.0
2710	7.00383e+02	2.71000e+03	0.025916	700.0
2720	7.00390e+02	2.72000e+03	0.02582	700.0