File: Experiments/TGA/TUBS/tga_nonisotherm/tga_dynamic_n2_dyn10_powder_1mg_r1.txt
index	ts	t	weight	tr
[#]	[°C]	[s]	[mg]	[°C]
843	1.30647e+02	8.43000e+02	1.00858e+00	1.30500e+02
862	1.33843e+02	8.62000e+02	1.00842e+00	1.33667e+02
881	1.37050e+02	8.81000e+02	1.00758e+00	1.36833e+02
900	1.40244e+02	9.00000e+02	1.00782e+00	1.40000e+02
919	1.43469e+02	9.19000e+02	1.00742e+00	1.43167e+02
938	1.46673e+02	9.38000e+02	1.00712e+00	1.46333e+02
957	1.49868e+02	9.57000e+02	1.00623e+00	1.49500e+02
976	1.53097e+02	9.76000e+02	1.00533e+00	1.52667e+02
995	1.56300e+02	9.95000e+02	1.00465e+00	1.55833e+02
1014	1.59523e+02	1.01400e+03	1.00377e+00	1.59000e+02
1033	1.62742e+02	1.03300e+03	1.00282e+00	1.62167e+02
1052	1.65963e+02	1.05200e+03	1.00099e+00	1.65333e+02
1071	1.69169e+02	1.07100e+03	9.99482e-01	1.68500e+02
1090	1.72382e+02	1.09000e+03	9.96649e-01	1.71667e+02
1109	1.75599e+02	1.10900e+03	9.93530e-01	1.74833e+02
1128	1.78821e+02	1.12800e+03	9.89676e-01	1.78000e+02
1147	1.82050e+02	1.14700e+03	9.85445e-01	1.81167e+02
1166	1.85255e+02	1.16600e+03	9.80931e-01	1.84333e+02
1185	1.88478e+02	1.18500e+03	9.77470e-01	1.87500e+02
1204	1.91696e+02	1.20400e+03	9.74802e-01	1.90667e+02
1223	1.94911e+02	1.22300e+03	9.72019e-01	1.93833e+02
1242	1.98136e+02	1.24200e+03	9.70538e-01	1.97000e+02
1261	2.01351e+02	1.26100e+03	9.69170e-01	2.00167e+02
1280	2.04565e+02	1.28000e+03	9.68300e-01	2.03333e+02
1299	2.07779e+02	1.29900e+03	9.67362e-01	2.06500e+02
1318	2.10989e+02	1.31800e+03	9.66664e-01	2.09667e+02
1337	2.14205e+02	1.33700e+03	9.65667e-01	2.12833e+02
1356	2.17416e+02	1.35600e+03	9.65150e-01	2.16000e+02
1375	2.20622e+02	1.37500e+03	9.64442e-01	2.19167e+02
1394	2.23834e+02	1.39400e+03	9.63869e-01	2.22333e+02
1413	2.27039e+02	1.41300e+03	9.63153e-01	2.25500e+02
1432	2.30225e+02	1.43200e+03	9.62584e-01	2.28667e+02
1451	2.33422e+02	1.45100e+03	9.62401e-01	2.31833e+02
1470	2.36613e+02	1.47000e+03	9.61900e-01	2.35000e+02
1489	2.39802e+02	1.48900e+03	9.61927e-01	2.38167e+02
1508	2.42998e+02	1.50800e+03	9.61147e-01	2.41333e+02
1527	2.46173e+02	1.52700e+03	9.61048e-01	2.44500e+02
1546	2.49351e+02	1.54600e+03	9.60300e-01	2.47667e+02
1565	2.52528e+02	1.56500e+03	9.60113e-01	2.50833e+02
1584	2.55717e+02	1.58400e+03	9.59512e-01	2.54000e+02
1603	2.58906e+02	1.60300e+03	9.59265e-01	2.57167e+02
1622	2.62093e+02	1.62200e+03	9.58593e-01	2.60333e+02
1641	2.65282e+02	1.64100e+03	9.57583e-01	2.63500e+02
1660	2.68464e+02	1.66000e+03	9.56922e-01	2.66667e+02
1679	2.71635e+02	1.67900e+03	9.55550e-01	2.69833e+02
1698	2.74815e+02	1.69800e+03	9.54314e-01	2.73000e+02
1717	2.77999e+02	1.71700e+03	9.52327e-01	2.76167e+02
1736	2.81175e+02	1.73600e+03	9.50538e-01	2.79333e+02
1755	2.84357e+02	1.75500e+03	9.48015e-01	2.82500e+02
1774	2.87538e+02	1.77400e+03	9.45232e-01	2.85667e+02
1793	2.90708e+02	1.79300e+03	9.41341e-01	2.88833e+02
1812	2.93921e+02	1.81200e+03	9.37041e-01	2.92000e+02
1831	2.97113e+02	1.83100e+03	9.32080e-01	2.95167e+02
1850	3.00335e+02	1.85000e+03	9.26924e-01	2.98333e+02
1869	3.03586e+02	1.86900e+03	9.21475e-01	3.01500e+02
1888	3.06794e+02	1.88800e+03	9.15717e-01	3.04667e+02
1907	3.10063e+02	1.90700e+03	9.10105e-01	3.07833e+02
1926	3.13264e+02	1.92600e+03	9.04204e-01	3.11000e+02
1945	3.16469e+02	1.94500e+03	8.98207e-01	3.14167e+02
1964	3.19670e+02	1.96400e+03	8.90934e-01	3.17333e+02
1983	3.22843e+02	1.98300e+03	8.82719e-01	3.20500e+02
2002	3.26008e+02	2.00200e+03	8.72870e-01	3.23667e+02
2021	3.29223e+02	2.02100e+03	8.61234e-01	3.26833e+02
2040	3.32439e+02	2.04000e+03	8.46636e-01	3.30000e+02
2059	3.35662e+02	2.05900e+03	8.28808e-01	3.33167e+02
2078	3.38909e+02	2.07800e+03	8.07927e-01	3.36333e+02
2097	3.42074e+02	2.09700e+03	7.82522e-01	3.39500e+02
2116	3.45224e+02	2.11600e+03	7.51927e-01	3.42667e+02
2135	3.48389e+02	2.13500e+03	7.17364e-01	3.45833e+02
2154	3.51596e+02	2.15400e+03	6.78359e-01	3.49000e+02
2173	3.54797e+02	2.17300e+03	6.34351e-01	3.52167e+02
2192	3.57970e+02	2.19200e+03	5.86694e-01	3.55333e+02
2211	3.61150e+02	2.21100e+03	5.35522e-01	3.58500e+02
2230	3.64289e+02	2.23000e+03	4.82639e-01	3.61667e+02
2249	3.67444e+02	2.24900e+03	4.28609e-01	3.64833e+02
2268	3.70589e+02	2.26800e+03	3.73993e-01	3.68000e+02
2287	3.73754e+02	2.28700e+03	3.18565e-01	3.71167e+02
2306	3.76943e+02	2.30600e+03	2.66761e-01	3.74333e+02
2325	3.80147e+02	2.32500e+03	2.19320e-01	3.77500e+02
2344	3.83323e+02	2.34400e+03	1.76356e-01	3.80667e+02
2363	3.86495e+02	2.36300e+03	1.39699e-01	3.83833e+02
2382	3.89712e+02	2.38200e+03	1.08990e-01	3.87000e+02
2401	3.92847e+02	2.40100e+03	8.36881e-02	3.90167e+02
2420	3.95891e+02	2.42000e+03	6.34697e-02	3.93333e+02
2439	3.98974e+02	2.43900e+03	4.83286e-02	3.96500e+02
2458	4.02057e+02	2.45800e+03	3.64417e-02	3.99667e+02
2477	4.05208e+02	2.47700e+03	2.85706e-02	4.02833e+02
2496	4.08366e+02	2.49600e+03	2.21235e-02	4.06000e+02
2515	4.11499e+02	2.51500e+03	1.76757e-02	4.09167e+02
2534	4.14601e+02	2.53400e+03	1.49075e-02	4.12333e+02
2553	4.17715e+02	2.55300e+03	1.21260e-02	4.15500e+02
2572	4.20780e+02	2.57200e+03	1.04907e-02	4.18667e+02
2591	4.23906e+02	2.59100e+03	8.62409e-03	4.21833e+02
2610	4.27055e+02	2.61000e+03	7.45548e-03	4.25000e+02
2629	4.30181e+02	2.62900e+03	7.76440e-03	4.28167e+02
2648	4.33272e+02	2.64800e+03	6.97874e-03	4.31333e+02
2667	4.36306e+02	2.66700e+03	6.05352e-03	4.34500e+02
2686	4.39410e+02	2.68600e+03	6.25789e-03	4.37667e+02
2705	4.42256e+02	2.70500e+03	6.12560e-03	4.40833e+02
2724	4.45345e+02	2.72400e+03	5.92225e-03	4.44000e+02
2743	4.48456e+02	2.74300e+03	5.88613e-03	4.47167e+02
2762	4.51573e+02	2.76200e+03	5.71166e-03	4.50333e+02
2781	4.54685e+02	2.78100e+03	5.60195e-03	4.53500e+02
2800	4.57785e+02	2.80000e+03	5.67897e-03	4.56667e+02
2819	4.60888e+02	2.81900e+03	5.39027e-03	4.59833e+02
2838	4.63984e+02	2.83800e+03	5.31514e-03	4.63000e+02
2857	4.67072e+02	2.85700e+03	5.25960e-03	4.66167e+02
2876	4.70204e+02	2.87600e+03	5.29468e-03	4.69333e+02
2895	4.73317e+02	2.89500e+03	5.05716e-03	4.72500e+02
2914	4.76429e+02	2.91400e+03	5.24247e-03	4.75667e+02
2933	4.79563e+02	2.93300e+03	5.07759e-03	4.78833e+02
2952	4.82691e+02	2.95200e+03	5.00219e-03	4.82000e+02
2971	4.85810e+02	2.97100e+03	5.03624e-03	4.85167e+02
2990	4.88936e+02	2.99000e+03	4.80963e-03	4.88333e+02
3009	4.92029e+02	3.00900e+03	5.03983e-03	4.91500e+02
3028	4.95136e+02	3.02800e+03	5.14911e-03	4.94667e+02
3047	4.98256e+02	3.04700e+03	5.12951e-03	4.97833e+02
3066	5.01366e+02	3.06600e+03	5.09524e-03	5.01000e+02
3085	5.04494e+02	3.08500e+03	4.91462e-03	5.04167e+02
3104	5.07610e+02	3.10400e+03	4.87120e-03	5.07333e+02
3123	5.10723e+02	3.12300e+03	4.76385e-03	5.10500e+02
3142	5.13839e+02	3.14200e+03	5.02828e-03	5.13667e+02
3161	5.16944e+02	3.16100e+03	5.11308e-03	5.16833e+02
3180	5.20066e+02	3.18000e+03	5.01922e-03	5.20000e+02
3199	5.23177e+02	3.19900e+03	4.70359e-03	5.23167e+02
3218	5.26301e+02	3.21800e+03	4.95883e-03	5.26333e+02
3237	5.29445e+02	3.23700e+03	4.72047e-03	5.29500e+02
3256	5.32554e+02	3.25600e+03	4.87912e-03	5.32667e+02
3275	5.35666e+02	3.27500e+03	4.83292e-03	5.35833e+02
3294	5.38782e+02	3.29400e+03	4.72378e-03	5.39000e+02
3313	5.41906e+02	3.31300e+03	4.73412e-03	5.42167e+02
3332	5.45022e+02	3.33200e+03	5.04576e-03	5.45333e+02
3351	5.48156e+02	3.35100e+03	4.73117e-03	5.48500e+02
3370	5.51297e+02	3.37000e+03	4.85594e-03	5.51667e+02
3389	5.54434e+02	3.38900e+03	4.89240e-03	5.54833e+02
3408	5.57583e+02	3.40800e+03	4.63601e-03	5.58000e+02
3427	5.60724e+02	3.42700e+03	4.90804e-03	5.61167e+02
3446	5.63855e+02	3.44600e+03	4.63788e-03	5.64333e+02
3465	5.66982e+02	3.46500e+03	4.66366e-03	5.67500e+02
3484	5.70124e+02	3.48400e+03	4.60206e-03	5.70667e+02
3503	5.73250e+02	3.50300e+03	4.68130e-03	5.73833e+02
3522	5.76376e+02	3.52200e+03	4.36547e-03	5.77000e+02
3541	5.79510e+02	3.54100e+03	4.56743e-03	5.80167e+02
3560	5.82653e+02	3.56000e+03	4.43387e-03	5.83333e+02
3579	5.85797e+02	3.57900e+03	4.23647e-03	5.86500e+02
3598	5.88922e+02	3.59800e+03	4.23388e-03	5.89667e+02
3617	5.92063e+02	3.61700e+03	4.34132e-03	5.92833e+02
3636	5.95198e+02	3.63600e+03	4.30979e-03	5.96000e+02
3655	5.98331e+02	3.65500e+03	4.66491e-03	5.99167e+02
3674	6.01472e+02	3.67400e+03	4.08005e-03	6.02333e+02
3693	6.04632e+02	3.69300e+03	4.05237e-03	6.05500e+02
3712	6.07766e+02	3.71200e+03	4.08600e-03	6.08667e+02
3731	6.10910e+02	3.73100e+03	4.12327e-03	6.11833e+02
3750	6.14068e+02	3.75000e+03	3.98107e-03	6.15000e+02
3769	6.17185e+02	3.76900e+03	4.00266e-03	6.18167e+02
3788	6.20329e+02	3.78800e+03	4.08742e-03	6.21333e+02
3807	6.23477e+02	3.80700e+03	3.94291e-03	6.24500e+02
3826	6.26637e+02	3.82600e+03	4.17711e-03	6.27667e+02
3845	6.29798e+02	3.84500e+03	4.18886e-03	6.30833e+02
3864	6.32941e+02	3.86400e+03	4.03217e-03	6.34000e+02
3883	6.36081e+02	3.88300e+03	3.99900e-03	6.37167e+02
3902	6.39215e+02	3.90200e+03	3.96332e-03	6.40333e+02
3921	6.42387e+02	3.92100e+03	3.73744e-03	6.43500e+02
3940	6.45535e+02	3.94000e+03	3.58217e-03	6.46667e+02
3959	6.48698e+02	3.95900e+03	4.00883e-03	6.49833e+02
3978	6.51843e+02	3.97800e+03	3.84780e-03	6.53000e+02
3997	6.55012e+02	3.99700e+03	4.03261e-03	6.56167e+02
4016	6.58172e+02	4.01600e+03	3.79820e-03	6.59333e+02
4035	6.61338e+02	4.03500e+03	3.83891e-03	6.62500e+02
4054	6.64511e+02	4.05400e+03	3.74430e-03	6.65667e+02
4073	6.67652e+02	4.07300e+03	3.88787e-03	6.68833e+02
4092	6.70805e+02	4.09200e+03	3.69927e-03	6.72000e+02
4111	6.73980e+02	4.11100e+03	3.98475e-03	6.75167e+02
4130	6.77139e+02	4.13000e+03	3.81492e-03	6.78333e+02
4149	6.80312e+02	4.14900e+03	3.56798e-03	6.81500e+02
4168	6.83477e+02	4.16800e+03	3.71872e-03	6.84667e+02
4187	6.86641e+02	4.18700e+03	3.54058e-03	6.87833e+02
4206	6.89822e+02	4.20600e+03	3.97073e-03	6.91000e+02
4225	6.92970e+02	4.22500e+03	3.86627e-03	6.94167e+02
4244	6.95603e+02	4.24400e+03	3.83513e-03	6.97333e+02
4260	6.96986e+02	4.26000e+03	3.90562e-03	7.00000e+02