File: Experiments/TGA/TUBS/tga_nonisotherm/tga_dynamic_n2_dyn30_powdertubs_3mg_r3.txt
index	ts	t	weight	tr
[#]	[°C]	[s]	[mg]	[°C]
683	1.30994e+02	6.83000e+02	3.04480e+00	1.31500e+02
690	1.34496e+02	6.90000e+02	3.04468e+00	1.35000e+02
697	1.38021e+02	6.97000e+02	3.04452e+00	1.38500e+02
704	1.41525e+02	7.04000e+02	3.04434e+00	1.42000e+02
711	1.45053e+02	7.11000e+02	3.04423e+00	1.45500e+02
718	1.48560e+02	7.18000e+02	3.04408e+00	1.49000e+02
725	1.52104e+02	7.25000e+02	3.04364e+00	1.52500e+02
732	1.55640e+02	7.32000e+02	3.04308e+00	1.56000e+02
739	1.59166e+02	7.39000e+02	3.04240e+00	1.59500e+02
746	1.62702e+02	7.46000e+02	3.04166e+00	1.63000e+02
753	1.66241e+02	7.53000e+02	3.04088e+00	1.66500e+02
760	1.69790e+02	7.60000e+02	3.03972e+00	1.70000e+02
767	1.73338e+02	7.67000e+02	3.03820e+00	1.73500e+02
774	1.76901e+02	7.74000e+02	3.03670e+00	1.77000e+02
781	1.80447e+02	7.81000e+02	3.03460e+00	1.80500e+02
788	1.84015e+02	7.88000e+02	3.03175e+00	1.84000e+02
795	1.87590e+02	7.95000e+02	3.02813e+00	1.87500e+02
802	1.91152e+02	8.02000e+02	3.02355e+00	1.91000e+02
809	1.94733e+02	8.09000e+02	3.01834e+00	1.94500e+02
816	1.98301e+02	8.16000e+02	3.01254e+00	1.98000e+02
823	2.01870e+02	8.23000e+02	3.00630e+00	2.01500e+02
830	2.05452e+02	8.30000e+02	2.99991e+00	2.05000e+02
837	2.09031e+02	8.37000e+02	2.99370e+00	2.08500e+02
844	2.12598e+02	8.44000e+02	2.98769e+00	2.12000e+02
851	2.16175e+02	8.51000e+02	2.98236e+00	2.15500e+02
858	2.19793e+02	8.58000e+02	2.97783e+00	2.19000e+02
865	2.23349e+02	8.65000e+02	2.97377e+00	2.22500e+02
872	2.26892e+02	8.72000e+02	2.97026e+00	2.26000e+02
879	2.30445e+02	8.79000e+02	2.96707e+00	2.29500e+02
886	2.33971e+02	8.86000e+02	2.96412e+00	2.33000e+02
893	2.37526e+02	8.93000e+02	2.96141e+00	2.36500e+02
900	2.41084e+02	9.00000e+02	2.95900e+00	2.40000e+02
907	2.44662e+02	9.07000e+02	2.95667e+00	2.43500e+02
914	2.48260e+02	9.14000e+02	2.95440e+00	2.47000e+02
921	2.51824e+02	9.21000e+02	2.95233e+00	2.50500e+02
928	2.55361e+02	9.28000e+02	2.95031e+00	2.54000e+02
935	2.58943e+02	9.35000e+02	2.94824e+00	2.57500e+02
942	2.62499e+02	9.42000e+02	2.94609e+00	2.61000e+02
949	2.66056e+02	9.49000e+02	2.94398e+00	2.64500e+02
956	2.69591e+02	9.56000e+02	2.94165e+00	2.68000e+02
963	2.73146e+02	9.63000e+02	2.93907e+00	2.71500e+02
970	2.76610e+02	9.70000e+02	2.93620e+00	2.75000e+02
977	2.80054e+02	9.77000e+02	2.93280e+00	2.78500e+02
984	2.83534e+02	9.84000e+02	2.92904e+00	2.82000e+02
991	2.87040e+02	9.91000e+02	2.92483e+00	2.85500e+02
998	2.90581e+02	9.98000e+02	2.91974e+00	2.89000e+02
1005	2.94083e+02	1.00500e+03	2.91365e+00	2.92500e+02
1012	2.97603e+02	1.01200e+03	2.90632e+00	2.96000e+02
1019	3.01157e+02	1.01900e+03	2.89791e+00	2.99500e+02
1026	3.04717e+02	1.02600e+03	2.88826e+00	3.03000e+02
1033	3.08270e+02	1.03300e+03	2.87747e+00	3.06500e+02
1040	3.11775e+02	1.04000e+03	2.86559e+00	3.10000e+02
1047	3.15312e+02	1.04700e+03	2.85277e+00	3.13500e+02
1054	3.18801e+02	1.05400e+03	2.83948e+00	3.17000e+02
1061	3.22301e+02	1.06100e+03	2.82596e+00	3.20500e+02
1068	3.25820e+02	1.06800e+03	2.81225e+00	3.24000e+02
1075	3.29292e+02	1.07500e+03	2.79802e+00	3.27500e+02
1082	3.32819e+02	1.08200e+03	2.78195e+00	3.31000e+02
1089	3.36320e+02	1.08900e+03	2.76291e+00	3.34500e+02
1096	3.39798e+02	1.09600e+03	2.74001e+00	3.38000e+02
1103	3.43380e+02	1.10300e+03	2.71193e+00	3.41500e+02
1110	3.46911e+02	1.11000e+03	2.67659e+00	3.45000e+02
1117	3.50454e+02	1.11700e+03	2.63253e+00	3.48500e+02
1124	3.53921e+02	1.12400e+03	2.57776e+00	3.52000e+02
1131	3.57444e+02	1.13100e+03	2.51090e+00	3.55500e+02
1138	3.60938e+02	1.13800e+03	2.42903e+00	3.59000e+02
1145	3.64557e+02	1.14500e+03	2.33109e+00	3.62500e+02
1152	3.68014e+02	1.15200e+03	2.21672e+00	3.66000e+02
1159	3.71472e+02	1.15900e+03	2.08608e+00	3.69500e+02
1166	3.74919e+02	1.16600e+03	1.93797e+00	3.73000e+02
1173	3.78396e+02	1.17300e+03	1.77550e+00	3.76500e+02
1180	3.82024e+02	1.18000e+03	1.60541e+00	3.80000e+02
1187	3.85577e+02	1.18700e+03	1.42440e+00	3.83500e+02
1194	3.89225e+02	1.19400e+03	1.22693e+00	3.87000e+02
1201	3.92899e+02	1.20100e+03	1.03550e+00	3.90500e+02
1208	3.96824e+02	1.20800e+03	8.55849e-01	3.94000e+02
1215	4.00404e+02	1.21500e+03	6.92204e-01	3.97500e+02
1222	4.04006e+02	1.22200e+03	5.48783e-01	4.01000e+02
1229	4.07809e+02	1.22900e+03	4.26284e-01	4.04500e+02
1236	4.11319e+02	1.23600e+03	3.24856e-01	4.08000e+02
1243	4.15028e+02	1.24300e+03	2.42489e-01	4.11500e+02
1250	4.18881e+02	1.25000e+03	1.78201e-01	4.15000e+02
1257	4.22316e+02	1.25700e+03	1.28639e-01	4.18500e+02
1264	4.25826e+02	1.26400e+03	9.15346e-02	4.22000e+02
1271	4.29304e+02	1.27100e+03	6.36895e-02	4.25500e+02
1278	4.32868e+02	1.27800e+03	4.36201e-02	4.29000e+02
1285	4.36527e+02	1.28500e+03	2.88797e-02	4.32500e+02
1292	4.40019e+02	1.29200e+03	1.80776e-02	4.36000e+02
1299	4.43462e+02	1.29900e+03	9.85231e-03	4.39500e+02
1306	4.47031e+02	1.30600e+03	3.55243e-03	4.43000e+02
1313	4.50598e+02	1.31300e+03	-1.18993e-03	4.46500e+02
1320	4.53947e+02	1.32000e+03	-4.69636e-03	4.50000e+02
1327	4.57342e+02	1.32700e+03	-6.97270e-03	4.53500e+02
1334	4.60715e+02	1.33400e+03	-8.07349e-03	4.57000e+02
1341	4.64188e+02	1.34100e+03	-8.48473e-03	4.60500e+02
1348	4.67831e+02	1.34800e+03	-8.71423e-03	4.64000e+02
1355	4.71669e+02	1.35500e+03	-9.03135e-03	4.67500e+02
1362	4.74518e+02	1.36200e+03	-9.25934e-03	4.71000e+02
1369	4.77598e+02	1.36900e+03	-9.38801e-03	4.74500e+02
1376	4.80809e+02	1.37600e+03	-9.48580e-03	4.78000e+02
1383	4.84110e+02	1.38300e+03	-9.61008e-03	4.81500e+02
1390	4.87416e+02	1.39000e+03	-9.76529e-03	4.85000e+02
1397	4.90695e+02	1.39700e+03	-9.83759e-03	4.88500e+02
1404	4.94041e+02	1.40400e+03	-9.97098e-03	4.92000e+02
1411	4.97360e+02	1.41100e+03	-1.01963e-02	4.95500e+02
1418	5.00637e+02	1.41800e+03	-1.02076e-02	4.99000e+02
1425	5.03983e+02	1.42500e+03	-1.03020e-02	5.02500e+02
1432	5.07406e+02	1.43200e+03	-1.03897e-02	5.06000e+02
1439	5.10815e+02	1.43900e+03	-1.02869e-02	5.09500e+02
1446	5.14288e+02	1.44600e+03	-1.05044e-02	5.13000e+02
1453	5.17770e+02	1.45300e+03	-1.07865e-02	5.16500e+02
1460	5.21121e+02	1.46000e+03	-1.02267e-02	5.20000e+02
1467	5.24438e+02	1.46700e+03	-1.01950e-02	5.23500e+02
1474	5.27860e+02	1.47400e+03	-1.04002e-02	5.27000e+02
1481	5.31275e+02	1.48100e+03	-1.05205e-02	5.30500e+02
1488	5.34662e+02	1.48800e+03	-1.05897e-02	5.34000e+02
1495	5.38051e+02	1.49500e+03	-1.05547e-02	5.37500e+02
1502	5.41451e+02	1.50200e+03	-1.06590e-02	5.41000e+02
1509	5.44801e+02	1.50900e+03	-1.06548e-02	5.44500e+02
1516	5.48191e+02	1.51600e+03	-1.06499e-02	5.48000e+02
1523	5.51603e+02	1.52300e+03	-1.07470e-02	5.51500e+02
1530	5.55069e+02	1.53000e+03	-1.08636e-02	5.55000e+02
1537	5.58593e+02	1.53700e+03	-1.10668e-02	5.58500e+02
1544	5.62129e+02	1.54400e+03	-1.06822e-02	5.62000e+02
1551	5.65628e+02	1.55100e+03	-1.06683e-02	5.65500e+02
1558	5.69174e+02	1.55800e+03	-1.07088e-02	5.69000e+02
1565	5.72668e+02	1.56500e+03	-1.08363e-02	5.72500e+02
1572	5.76001e+02	1.57200e+03	-1.08216e-02	5.76000e+02
1579	5.79381e+02	1.57900e+03	-1.07091e-02	5.79500e+02
1586	5.82820e+02	1.58600e+03	-1.07305e-02	5.83000e+02
1593	5.86355e+02	1.59300e+03	-1.07512e-02	5.86500e+02
1600	5.89884e+02	1.60000e+03	-1.07562e-02	5.90000e+02
1607	5.93321e+02	1.60700e+03	-1.08038e-02	5.93500e+02
1614	5.96755e+02	1.61400e+03	-1.08858e-02	5.97000e+02
1621	6.00283e+02	1.62100e+03	-1.10047e-02	6.00500e+02
1628	6.04050e+02	1.62800e+03	-1.11535e-02	6.04000e+02
1635	6.07988e+02	1.63500e+03	-1.11663e-02	6.07500e+02
1642	6.11313e+02	1.64200e+03	-1.11627e-02	6.11000e+02
1649	6.14763e+02	1.64900e+03	-1.12261e-02	6.14500e+02
1656	6.18247e+02	1.65600e+03	-1.12841e-02	6.18000e+02
1663	6.21710e+02	1.66300e+03	-1.13350e-02	6.21500e+02
1670	6.25160e+02	1.67000e+03	-1.13927e-02	6.25000e+02
1677	6.28645e+02	1.67700e+03	-1.14200e-02	6.28500e+02
1684	6.32153e+02	1.68400e+03	-1.14830e-02	6.32000e+02
1691	6.35595e+02	1.69100e+03	-1.14979e-02	6.35500e+02
1698	6.39148e+02	1.69800e+03	-1.15038e-02	6.39000e+02
1705	6.42700e+02	1.70500e+03	-1.15450e-02	6.42500e+02
1712	6.46198e+02	1.71200e+03	-1.16076e-02	6.46000e+02
1719	6.49651e+02	1.71900e+03	-1.16795e-02	6.49500e+02
1726	6.53066e+02	1.72600e+03	-1.18712e-02	6.53000e+02
1733	6.56560e+02	1.73300e+03	-1.13264e-02	6.56500e+02
1740	6.60080e+02	1.74000e+03	-1.13472e-02	6.60000e+02
1747	6.63581e+02	1.74700e+03	-1.17356e-02	6.63500e+02
1754	6.67104e+02	1.75400e+03	-1.17609e-02	6.67000e+02
1761	6.70602e+02	1.76100e+03	-1.16548e-02	6.70500e+02
1768	6.74109e+02	1.76800e+03	-1.17506e-02	6.74000e+02
1775	6.77547e+02	1.77500e+03	-1.17659e-02	6.77500e+02
1782	6.81035e+02	1.78200e+03	-1.18166e-02	6.81000e+02
1789	6.84498e+02	1.78900e+03	-1.20302e-02	6.84500e+02
1796	6.87374e+02	1.79600e+03	-1.17084e-02	6.88000e+02
1803	6.89605e+02	1.80300e+03	-1.13401e-02	6.91500e+02
1810	6.91497e+02	1.81000e+03	-1.15374e-02	6.95000e+02
1817	6.93044e+02	1.81700e+03	-1.15926e-02	6.98500e+02
1820	6.93625e+02	1.82000e+03	-1.15134e-02	7.00000e+02