File: Experiments/TGA/TUBS/tga_nonisotherm/tga_dynamic_n2_dyn20_piece_2mg_r3.txt
index	ts	t	weight	tr
[#]	[°C]	[s]	[mg]	[°C]
723	1.30216e+02	7.23000e+02	2.01195e+00	1.31000e+02
733	1.33542e+02	7.33000e+02	2.01175e+00	1.34333e+02
743	1.36868e+02	7.43000e+02	2.01153e+00	1.37667e+02
753	1.40205e+02	7.53000e+02	2.01145e+00	1.41000e+02
763	1.43535e+02	7.63000e+02	2.01140e+00	1.44333e+02
773	1.46875e+02	7.73000e+02	2.01131e+00	1.47667e+02
783	1.50220e+02	7.83000e+02	2.01132e+00	1.51000e+02
793	1.53570e+02	7.93000e+02	2.01096e+00	1.54333e+02
803	1.56915e+02	8.03000e+02	2.01100e+00	1.57667e+02
813	1.60266e+02	8.13000e+02	2.01028e+00	1.61000e+02
823	1.63618e+02	8.23000e+02	2.01036e+00	1.64333e+02
833	1.66983e+02	8.33000e+02	2.01030e+00	1.67667e+02
843	1.70342e+02	8.43000e+02	2.01027e+00	1.71000e+02
853	1.73708e+02	8.53000e+02	2.00996e+00	1.74333e+02
863	1.77090e+02	8.63000e+02	2.00957e+00	1.77667e+02
873	1.80442e+02	8.73000e+02	2.00918e+00	1.81000e+02
883	1.83830e+02	8.83000e+02	2.00866e+00	1.84333e+02
893	1.87212e+02	8.93000e+02	2.00810e+00	1.87667e+02
903	1.90586e+02	9.03000e+02	2.00716e+00	1.91000e+02
913	1.93970e+02	9.13000e+02	2.00604e+00	1.94333e+02
923	1.97344e+02	9.23000e+02	2.00473e+00	1.97667e+02
933	2.00725e+02	9.33000e+02	2.00338e+00	2.01000e+02
943	2.04100e+02	9.43000e+02	2.00196e+00	2.04333e+02
953	2.07480e+02	9.53000e+02	2.00046e+00	2.07667e+02
963	2.10870e+02	9.63000e+02	1.99882e+00	2.11000e+02
973	2.14239e+02	9.73000e+02	1.99732e+00	2.14333e+02
983	2.17624e+02	9.83000e+02	1.99576e+00	2.17667e+02
993	2.20999e+02	9.93000e+02	1.99421e+00	2.21000e+02
1003	2.24387e+02	1.00300e+03	1.99268e+00	2.24333e+02
1013	2.27739e+02	1.01300e+03	1.99066e+00	2.27667e+02
1023	2.31125e+02	1.02300e+03	1.98876e+00	2.31000e+02
1033	2.34495e+02	1.03300e+03	1.98700e+00	2.34333e+02
1043	2.37864e+02	1.04300e+03	1.98502e+00	2.37667e+02
1053	2.41231e+02	1.05300e+03	1.98286e+00	2.41000e+02
1063	2.44597e+02	1.06300e+03	1.98079e+00	2.44333e+02
1073	2.47969e+02	1.07300e+03	1.97878e+00	2.47667e+02
1083	2.51329e+02	1.08300e+03	1.97646e+00	2.51000e+02
1093	2.54695e+02	1.09300e+03	1.97406e+00	2.54333e+02
1103	2.58070e+02	1.10300e+03	1.97171e+00	2.57667e+02
1113	2.61421e+02	1.11300e+03	1.96922e+00	2.61000e+02
1123	2.64790e+02	1.12300e+03	1.96673e+00	2.64333e+02
1133	2.68137e+02	1.13300e+03	1.96419e+00	2.67667e+02
1143	2.71489e+02	1.14300e+03	1.96163e+00	2.71000e+02
1153	2.74849e+02	1.15300e+03	1.95892e+00	2.74333e+02
1163	2.78209e+02	1.16300e+03	1.95610e+00	2.77667e+02
1173	2.81547e+02	1.17300e+03	1.95300e+00	2.81000e+02
1183	2.84898e+02	1.18300e+03	1.94939e+00	2.84333e+02
1193	2.88260e+02	1.19300e+03	1.94524e+00	2.87667e+02
1203	2.91617e+02	1.20300e+03	1.94112e+00	2.91000e+02
1213	2.94953e+02	1.21300e+03	1.93672e+00	2.94333e+02
1223	2.98296e+02	1.22300e+03	1.93183e+00	2.97667e+02
1233	3.01635e+02	1.23300e+03	1.92655e+00	3.01000e+02
1243	3.04982e+02	1.24300e+03	1.92080e+00	3.04333e+02
1253	3.08328e+02	1.25300e+03	1.91437e+00	3.07667e+02
1263	3.11672e+02	1.26300e+03	1.90744e+00	3.11000e+02
1273	3.15004e+02	1.27300e+03	1.90035e+00	3.14333e+02
1283	3.18347e+02	1.28300e+03	1.89306e+00	3.17667e+02
1293	3.21680e+02	1.29300e+03	1.88538e+00	3.21000e+02
1303	3.25023e+02	1.30300e+03	1.87712e+00	3.24333e+02
1313	3.28346e+02	1.31300e+03	1.86799e+00	3.27667e+02
1323	3.31684e+02	1.32300e+03	1.85749e+00	3.31000e+02
1333	3.35011e+02	1.33300e+03	1.84488e+00	3.34333e+02
1343	3.38345e+02	1.34300e+03	1.82967e+00	3.37667e+02
1353	3.41656e+02	1.35300e+03	1.81067e+00	3.41000e+02
1363	3.44972e+02	1.36300e+03	1.78727e+00	3.44333e+02
1373	3.48292e+02	1.37300e+03	1.75780e+00	3.47667e+02
1383	3.51595e+02	1.38300e+03	1.72123e+00	3.51000e+02
1393	3.54899e+02	1.39300e+03	1.67282e+00	3.54333e+02
1403	3.58197e+02	1.40300e+03	1.60890e+00	3.57667e+02
1413	3.61489e+02	1.41300e+03	1.53172e+00	3.61000e+02
1423	3.64784e+02	1.42300e+03	1.44185e+00	3.64333e+02
1433	3.68083e+02	1.43300e+03	1.33613e+00	3.67667e+02
1443	3.71369e+02	1.44300e+03	1.22349e+00	3.71000e+02
1453	3.74679e+02	1.45300e+03	1.10612e+00	3.74333e+02
1463	3.77984e+02	1.46300e+03	9.86342e-01	3.77667e+02
1473	3.81289e+02	1.47300e+03	8.65971e-01	3.81000e+02
1483	3.84587e+02	1.48300e+03	7.44101e-01	3.84333e+02
1493	3.87909e+02	1.49300e+03	6.22375e-01	3.87667e+02
1503	3.91232e+02	1.50300e+03	5.03227e-01	3.91000e+02
1513	3.94578e+02	1.51300e+03	3.84975e-01	3.94333e+02
1523	3.97936e+02	1.52300e+03	2.81218e-01	3.97667e+02
1533	4.01298e+02	1.53300e+03	1.99720e-01	4.01000e+02
1543	4.04653e+02	1.54300e+03	1.37331e-01	4.04333e+02
1553	4.08028e+02	1.55300e+03	9.16193e-02	4.07667e+02
1563	4.11376e+02	1.56300e+03	5.87228e-02	4.11000e+02
1573	4.14730e+02	1.57300e+03	3.64961e-02	4.14333e+02
1583	4.18064e+02	1.58300e+03	2.16513e-02	4.17667e+02
1593	4.21378e+02	1.59300e+03	1.23315e-02	4.21000e+02
1603	4.24710e+02	1.60300e+03	6.00149e-03	4.24333e+02
1613	4.28039e+02	1.61300e+03	2.33911e-03	4.27667e+02
1623	4.31354e+02	1.62300e+03	-1.38761e-03	4.31000e+02
1633	4.34649e+02	1.63300e+03	-3.22891e-03	4.34333e+02
1643	4.37955e+02	1.64300e+03	-4.52166e-03	4.37667e+02
1653	4.41274e+02	1.65300e+03	-5.39553e-03	4.41000e+02
1663	4.44569e+02	1.66300e+03	-5.80185e-03	4.44333e+02
1673	4.47872e+02	1.67300e+03	-6.84224e-03	4.47667e+02
1683	4.51177e+02	1.68300e+03	-6.94687e-03	4.51000e+02
1693	4.54468e+02	1.69300e+03	-6.89365e-03	4.54333e+02
1703	4.57759e+02	1.70300e+03	-6.76050e-03	4.57667e+02
1713	4.61066e+02	1.71300e+03	-7.37221e-03	4.61000e+02
1723	4.64372e+02	1.72300e+03	-6.71343e-03	4.64333e+02
1733	4.67669e+02	1.73300e+03	-7.45425e-03	4.67667e+02
1743	4.70955e+02	1.74300e+03	-7.24975e-03	4.71000e+02
1753	4.74249e+02	1.75300e+03	-7.83083e-03	4.74333e+02
1763	4.77551e+02	1.76300e+03	-7.39803e-03	4.77667e+02
1773	4.80852e+02	1.77300e+03	-7.18841e-03	4.81000e+02
1783	4.84139e+02	1.78300e+03	-7.32600e-03	4.84333e+02
1793	4.87444e+02	1.79300e+03	-7.51591e-03	4.87667e+02
1803	4.90744e+02	1.80300e+03	-7.95885e-03	4.91000e+02
1813	4.94033e+02	1.81300e+03	-7.82166e-03	4.94333e+02
1823	4.97327e+02	1.82300e+03	-7.52958e-03	4.97667e+02
1833	5.00636e+02	1.83300e+03	-7.69242e-03	5.01000e+02
1843	5.03946e+02	1.84300e+03	-7.71458e-03	5.04333e+02
1853	5.07247e+02	1.85300e+03	-7.73518e-03	5.07667e+02
1863	5.10543e+02	1.86300e+03	-7.79959e-03	5.11000e+02
1873	5.13854e+02	1.87300e+03	-7.88816e-03	5.14333e+02
1883	5.17151e+02	1.88300e+03	-7.78348e-03	5.17667e+02
1893	5.20461e+02	1.89300e+03	-7.86128e-03	5.21000e+02
1903	5.23774e+02	1.90300e+03	-7.83839e-03	5.24333e+02
1913	5.27079e+02	1.91300e+03	-7.94331e-03	5.27667e+02
1923	5.30384e+02	1.92300e+03	-7.86645e-03	5.31000e+02
1933	5.33713e+02	1.93300e+03	-7.92889e-03	5.34333e+02
1943	5.37011e+02	1.94300e+03	-7.87563e-03	5.37667e+02
1953	5.40329e+02	1.95300e+03	-7.93911e-03	5.41000e+02
1963	5.43629e+02	1.96300e+03	-7.87537e-03	5.44333e+02
1973	5.46959e+02	1.97300e+03	-7.94453e-03	5.47667e+02
1983	5.50274e+02	1.98300e+03	-8.01842e-03	5.51000e+02
1993	5.53577e+02	1.99300e+03	-8.12686e-03	5.54333e+02
2003	5.56902e+02	2.00300e+03	-8.16552e-03	5.57667e+02
2013	5.60215e+02	2.01300e+03	-8.09075e-03	5.61000e+02
2023	5.63519e+02	2.02300e+03	-8.09347e-03	5.64333e+02
2033	5.66841e+02	2.03300e+03	-7.99654e-03	5.67667e+02
2043	5.70165e+02	2.04300e+03	-8.07465e-03	5.71000e+02
2053	5.73470e+02	2.05300e+03	-8.19344e-03	5.74333e+02
2063	5.76797e+02	2.06300e+03	-8.14833e-03	5.77667e+02
2073	5.80115e+02	2.07300e+03	-8.15060e-03	5.81000e+02
2083	5.83438e+02	2.08300e+03	-8.29560e-03	5.84333e+02
2093	5.86759e+02	2.09300e+03	-7.67752e-03	5.87667e+02
2103	5.90085e+02	2.10300e+03	-8.06318e-03	5.91000e+02
2113	5.93397e+02	2.11300e+03	-8.37273e-03	5.94333e+02
2123	5.96721e+02	2.12300e+03	-8.33441e-03	5.97667e+02
2133	6.00039e+02	2.13300e+03	-8.13057e-03	6.01000e+02
2143	6.03344e+02	2.14300e+03	-8.17845e-03	6.04333e+02
2153	6.06672e+02	2.15300e+03	-8.28987e-03	6.07667e+02
2163	6.10016e+02	2.16300e+03	-8.12713e-03	6.11000e+02
2173	6.13299e+02	2.17300e+03	-8.07702e-03	6.14333e+02
2183	6.16656e+02	2.18300e+03	-8.28211e-03	6.17667e+02
2193	6.19942e+02	2.19300e+03	-8.12036e-03	6.21000e+02
2203	6.23271e+02	2.20300e+03	-8.57343e-03	6.24333e+02
2213	6.26608e+02	2.21300e+03	-8.40283e-03	6.27667e+02
2223	6.29944e+02	2.22300e+03	-8.40733e-03	6.31000e+02
2233	6.33259e+02	2.23300e+03	-8.40289e-03	6.34333e+02
2243	6.36581e+02	2.24300e+03	-8.41819e-03	6.37667e+02
2253	6.39912e+02	2.25300e+03	-8.44745e-03	6.41000e+02
2263	6.43243e+02	2.26300e+03	-8.36142e-03	6.44333e+02
2273	6.46573e+02	2.27300e+03	-8.39310e-03	6.47667e+02
2283	6.49899e+02	2.28300e+03	-8.44981e-03	6.51000e+02
2293	6.53236e+02	2.29300e+03	-8.40071e-03	6.54333e+02
2303	6.56556e+02	2.30300e+03	-8.34427e-03	6.57667e+02
2313	6.59884e+02	2.31300e+03	-8.35034e-03	6.61000e+02
2323	6.63220e+02	2.32300e+03	-8.35532e-03	6.64333e+02
2333	6.66541e+02	2.33300e+03	-7.98842e-03	6.67667e+02
2343	6.69868e+02	2.34300e+03	-8.93914e-03	6.71000e+02
2353	6.73188e+02	2.35300e+03	-8.60199e-03	6.74333e+02
2363	6.76507e+02	2.36300e+03	-8.52645e-03	6.77667e+02
2373	6.79853e+02	2.37300e+03	-8.62220e-03	6.81000e+02
2383	6.83173e+02	2.38300e+03	-8.79138e-03	6.84333e+02
2393	6.86512e+02	2.39300e+03	-8.81901e-03	6.87667e+02
2403	6.89836e+02	2.40300e+03	-8.61831e-03	6.91000e+02
2413	6.92023e+02	2.41300e+03	-8.63052e-03	6.94333e+02
2423	6.93873e+02	2.42300e+03	-8.68508e-03	6.97667e+02
2430	6.94867e+02	2.43000e+03	-8.67262e-03	7.00000e+02