File: Experiments/TGA/TUBS/tga_nonisotherm/tga_dynamic_n2_dyn10_powder_3mg_r2.txt
index	ts	t	weight	tr
[#]	[°C]	[s]	[mg]	[°C]
843	1.30879e+02	8.43000e+02	2.98602e+00	1.30500e+02
862	1.34096e+02	8.62000e+02	2.98525e+00	1.33667e+02
881	1.37311e+02	8.81000e+02	2.98470e+00	1.36833e+02
900	1.40528e+02	9.00000e+02	2.98341e+00	1.40000e+02
919	1.43728e+02	9.19000e+02	2.98220e+00	1.43167e+02
938	1.46951e+02	9.38000e+02	2.98105e+00	1.46333e+02
957	1.50161e+02	9.57000e+02	2.97924e+00	1.49500e+02
976	1.53397e+02	9.76000e+02	2.97724e+00	1.52667e+02
995	1.56607e+02	9.95000e+02	2.97489e+00	1.55833e+02
1014	1.59810e+02	1.01400e+03	2.97269e+00	1.59000e+02
1033	1.63043e+02	1.03300e+03	2.97018e+00	1.62167e+02
1052	1.66238e+02	1.05200e+03	2.96657e+00	1.65333e+02
1071	1.69465e+02	1.07100e+03	2.96207e+00	1.68500e+02
1090	1.72675e+02	1.09000e+03	2.95587e+00	1.71667e+02
1109	1.75887e+02	1.10900e+03	2.94777e+00	1.74833e+02
1128	1.79100e+02	1.12800e+03	2.93832e+00	1.78000e+02
1147	1.82318e+02	1.14700e+03	2.92657e+00	1.81167e+02
1166	1.85536e+02	1.16600e+03	2.91462e+00	1.84333e+02
1185	1.88751e+02	1.18500e+03	2.90383e+00	1.87500e+02
1204	1.91963e+02	1.20400e+03	2.89489e+00	1.90667e+02
1223	1.95185e+02	1.22300e+03	2.88770e+00	1.93833e+02
1242	1.98386e+02	1.24200e+03	2.88294e+00	1.97000e+02
1261	2.01604e+02	1.26100e+03	2.87942e+00	2.00167e+02
1280	2.04803e+02	1.28000e+03	2.87674e+00	2.03333e+02
1299	2.07976e+02	1.29900e+03	2.87393e+00	2.06500e+02
1318	2.11175e+02	1.31800e+03	2.87351e+00	2.09667e+02
1337	2.14372e+02	1.33700e+03	2.87049e+00	2.12833e+02
1356	2.17538e+02	1.35600e+03	2.86748e+00	2.16000e+02
1375	2.20733e+02	1.37500e+03	2.86519e+00	2.19167e+02
1394	2.23936e+02	1.39400e+03	2.86327e+00	2.22333e+02
1413	2.27136e+02	1.41300e+03	2.86152e+00	2.25500e+02
1432	2.30332e+02	1.43200e+03	2.85919e+00	2.28667e+02
1451	2.33620e+02	1.45100e+03	2.85826e+00	2.31833e+02
1470	2.36915e+02	1.47000e+03	2.85754e+00	2.35000e+02
1489	2.40100e+02	1.48900e+03	2.85649e+00	2.38167e+02
1508	2.43319e+02	1.50800e+03	2.85562e+00	2.41333e+02
1527	2.46531e+02	1.52700e+03	2.85459e+00	2.44500e+02
1546	2.49687e+02	1.54600e+03	2.85331e+00	2.47667e+02
1565	2.52863e+02	1.56500e+03	2.85223e+00	2.50833e+02
1584	2.56068e+02	1.58400e+03	2.85079e+00	2.54000e+02
1603	2.59245e+02	1.60300e+03	2.84964e+00	2.57167e+02
1622	2.62436e+02	1.62200e+03	2.84769e+00	2.60333e+02
1641	2.65603e+02	1.64100e+03	2.84574e+00	2.63500e+02
1660	2.68792e+02	1.66000e+03	2.84303e+00	2.66667e+02
1679	2.71952e+02	1.67900e+03	2.83964e+00	2.69833e+02
1698	2.75117e+02	1.69800e+03	2.83578e+00	2.73000e+02
1717	2.78260e+02	1.71700e+03	2.83067e+00	2.76167e+02
1736	2.81442e+02	1.73600e+03	2.82470e+00	2.79333e+02
1755	2.84555e+02	1.75500e+03	2.81749e+00	2.82500e+02
1774	2.87639e+02	1.77400e+03	2.80875e+00	2.85667e+02
1793	2.90705e+02	1.79300e+03	2.79819e+00	2.88833e+02
1812	2.93795e+02	1.81200e+03	2.78615e+00	2.92000e+02
1831	2.96859e+02	1.83100e+03	2.77219e+00	2.95167e+02
1850	2.99848e+02	1.85000e+03	2.75673e+00	2.98333e+02
1869	3.02860e+02	1.86900e+03	2.73990e+00	3.01500e+02
1888	3.05998e+02	1.88800e+03	2.72392e+00	3.04667e+02
1907	3.09138e+02	1.90700e+03	2.70823e+00	3.07833e+02
1926	3.12292e+02	1.92600e+03	2.69213e+00	3.11000e+02
1945	3.15436e+02	1.94500e+03	2.67494e+00	3.14167e+02
1964	3.18566e+02	1.96400e+03	2.65502e+00	3.17333e+02
1983	3.21708e+02	1.98300e+03	2.63185e+00	3.20500e+02
2002	3.24869e+02	2.00200e+03	2.60350e+00	3.23667e+02
2021	3.28004e+02	2.02100e+03	2.56895e+00	3.26833e+02
2040	3.31136e+02	2.04000e+03	2.52610e+00	3.30000e+02
2059	3.34274e+02	2.05900e+03	2.47348e+00	3.33167e+02
2078	3.37420e+02	2.07800e+03	2.41039e+00	3.36333e+02
2097	3.40551e+02	2.09700e+03	2.33392e+00	3.39500e+02
2116	3.43685e+02	2.11600e+03	2.24374e+00	3.42667e+02
2135	3.46850e+02	2.13500e+03	2.13968e+00	3.45833e+02
2154	3.50011e+02	2.15400e+03	2.02229e+00	3.49000e+02
2173	3.53165e+02	2.17300e+03	1.89221e+00	3.52167e+02
2192	3.56318e+02	2.19200e+03	1.75133e+00	3.55333e+02
2211	3.59462e+02	2.21100e+03	1.59993e+00	3.58500e+02
2230	3.62612e+02	2.23000e+03	1.44321e+00	3.61667e+02
2249	3.65799e+02	2.24900e+03	1.27997e+00	3.64833e+02
2268	3.68971e+02	2.26800e+03	1.11815e+00	3.68000e+02
2287	3.72145e+02	2.28700e+03	9.50075e-01	3.71167e+02
2306	3.75346e+02	2.30600e+03	7.93000e-01	3.74333e+02
2325	3.78551e+02	2.32500e+03	6.48596e-01	3.77500e+02
2344	3.81742e+02	2.34400e+03	5.19349e-01	3.80667e+02
2363	3.84946e+02	2.36300e+03	4.07067e-01	3.83833e+02
2382	3.88135e+02	2.38200e+03	3.12173e-01	3.87000e+02
2401	3.91318e+02	2.40100e+03	2.33785e-01	3.90167e+02
2420	3.94511e+02	2.42000e+03	1.70756e-01	3.93333e+02
2439	3.97774e+02	2.43900e+03	1.20963e-01	3.96500e+02
2458	4.00991e+02	2.45800e+03	8.27835e-02	3.99667e+02
2477	4.04163e+02	2.47700e+03	5.43303e-02	4.02833e+02
2496	4.07309e+02	2.49600e+03	3.39683e-02	4.06000e+02
2515	4.10463e+02	2.51500e+03	1.99446e-02	4.09167e+02
2534	4.13648e+02	2.53400e+03	9.91462e-03	4.12333e+02
2553	4.16811e+02	2.55300e+03	3.24531e-03	4.15500e+02
2572	4.19968e+02	2.57200e+03	-1.48093e-03	4.18667e+02
2591	4.23131e+02	2.59100e+03	-4.60112e-03	4.21833e+02
2610	4.26263e+02	2.61000e+03	-6.88409e-03	4.25000e+02
2629	4.29370e+02	2.62900e+03	-7.95510e-03	4.28167e+02
2648	4.32479e+02	2.64800e+03	-8.99802e-03	4.31333e+02
2667	4.35582e+02	2.66700e+03	-9.55271e-03	4.34500e+02
2686	4.38672e+02	2.68600e+03	-1.02305e-02	4.37667e+02
2705	4.41804e+02	2.70500e+03	-1.00976e-02	4.40833e+02
2724	4.44912e+02	2.72400e+03	-1.04822e-02	4.44000e+02
2743	4.48017e+02	2.74300e+03	-1.04065e-02	4.47167e+02
2762	4.51138e+02	2.76200e+03	-1.07880e-02	4.50333e+02
2781	4.54251e+02	2.78100e+03	-1.08944e-02	4.53500e+02
2800	4.57330e+02	2.80000e+03	-1.09508e-02	4.56667e+02
2819	4.60340e+02	2.81900e+03	-1.11254e-02	4.59833e+02
2838	4.63431e+02	2.83800e+03	-1.11956e-02	4.63000e+02
2857	4.66537e+02	2.85700e+03	-1.13714e-02	4.66167e+02
2876	4.69631e+02	2.87600e+03	-1.15240e-02	4.69333e+02
2895	4.72757e+02	2.89500e+03	-1.15799e-02	4.72500e+02
2914	4.75859e+02	2.91400e+03	-1.14865e-02	4.75667e+02
2933	4.78958e+02	2.93300e+03	-1.16666e-02	4.78833e+02
2952	4.82082e+02	2.95200e+03	-1.17035e-02	4.82000e+02
2971	4.85198e+02	2.97100e+03	-1.16988e-02	4.85167e+02
2990	4.88322e+02	2.99000e+03	-1.20557e-02	4.88333e+02
3009	4.91428e+02	3.00900e+03	-1.17542e-02	4.91500e+02
3028	4.94548e+02	3.02800e+03	-1.16910e-02	4.94667e+02
3047	4.97675e+02	3.04700e+03	-1.18734e-02	4.97833e+02
3066	5.00802e+02	3.06600e+03	-1.19048e-02	5.01000e+02
3085	5.03936e+02	3.08500e+03	-1.19106e-02	5.04167e+02
3104	5.07062e+02	3.10400e+03	-1.20977e-02	5.07333e+02
3123	5.10191e+02	3.12300e+03	-1.20556e-02	5.10500e+02
3142	5.13329e+02	3.14200e+03	-1.18066e-02	5.13667e+02
3161	5.16473e+02	3.16100e+03	-1.17658e-02	5.16833e+02
3180	5.19607e+02	3.18000e+03	-1.19618e-02	5.20000e+02
3199	5.22758e+02	3.19900e+03	-1.18093e-02	5.23167e+02
3218	5.25894e+02	3.21800e+03	-1.21997e-02	5.26333e+02
3237	5.29023e+02	3.23700e+03	-1.21327e-02	5.29500e+02
3256	5.32157e+02	3.25600e+03	-1.17484e-02	5.32667e+02
3275	5.35310e+02	3.27500e+03	-1.22701e-02	5.35833e+02
3294	5.38451e+02	3.29400e+03	-1.21374e-02	5.39000e+02
3313	5.41597e+02	3.31300e+03	-1.13785e-02	5.42167e+02
3332	5.44801e+02	3.33200e+03	-1.17947e-02	5.45333e+02
3351	5.47971e+02	3.35100e+03	-1.20770e-02	5.48500e+02
3370	5.51108e+02	3.37000e+03	-1.20767e-02	5.51667e+02
3389	5.54258e+02	3.38900e+03	-1.20286e-02	5.54833e+02
3408	5.57407e+02	3.40800e+03	-1.22291e-02	5.58000e+02
3427	5.60541e+02	3.42700e+03	-1.20897e-02	5.61167e+02
3446	5.63686e+02	3.44600e+03	-1.21082e-02	5.64333e+02
3465	5.66831e+02	3.46500e+03	-1.22153e-02	5.67500e+02
3484	5.69957e+02	3.48400e+03	-1.22747e-02	5.70667e+02
3503	5.73089e+02	3.50300e+03	-1.23657e-02	5.73833e+02
3522	5.76232e+02	3.52200e+03	-1.26341e-02	5.77000e+02
3541	5.79369e+02	3.54100e+03	-1.23875e-02	5.80167e+02
3560	5.82527e+02	3.56000e+03	-1.25744e-02	5.83333e+02
3579	5.85674e+02	3.57900e+03	-1.27017e-02	5.86500e+02
3598	5.88835e+02	3.59800e+03	-1.27619e-02	5.89667e+02
3617	5.91978e+02	3.61700e+03	-1.25825e-02	5.92833e+02
3636	5.95143e+02	3.63600e+03	-1.27039e-02	5.96000e+02
3655	5.98299e+02	3.65500e+03	-1.26153e-02	5.99167e+02
3674	6.01472e+02	3.67400e+03	-1.26952e-02	6.02333e+02
3693	6.04665e+02	3.69300e+03	-1.26351e-02	6.05500e+02
3712	6.07863e+02	3.71200e+03	-1.27301e-02	6.08667e+02
3731	6.11192e+02	3.73100e+03	-1.27719e-02	6.11833e+02
3750	6.15865e+02	3.75000e+03	-1.29782e-02	6.15000e+02
3769	6.18717e+02	3.76900e+03	-1.28003e-02	6.18167e+02
3788	6.21747e+02	3.78800e+03	-1.28593e-02	6.21333e+02
3807	6.24801e+02	3.80700e+03	-1.30107e-02	6.24500e+02
3826	6.27888e+02	3.82600e+03	-1.28507e-02	6.27667e+02
3845	6.30978e+02	3.84500e+03	-1.29372e-02	6.30833e+02
3864	6.34076e+02	3.86400e+03	-1.29001e-02	6.34000e+02
3883	6.37171e+02	3.88300e+03	-1.30760e-02	6.37167e+02
3902	6.40276e+02	3.90200e+03	-1.30792e-02	6.40333e+02
3921	6.43379e+02	3.92100e+03	-1.30644e-02	6.43500e+02
3940	6.46499e+02	3.94000e+03	-1.32917e-02	6.46667e+02
3959	6.49620e+02	3.95900e+03	-1.27991e-02	6.49833e+02
3978	6.52757e+02	3.97800e+03	-1.30878e-02	6.53000e+02
3997	6.55880e+02	3.99700e+03	-1.32180e-02	6.56167e+02
4016	6.58984e+02	4.01600e+03	-1.33053e-02	6.59333e+02
4035	6.62118e+02	4.03500e+03	-1.33320e-02	6.62500e+02
4054	6.65220e+02	4.05400e+03	-1.34754e-02	6.65667e+02
4073	6.68357e+02	4.07300e+03	-1.33614e-02	6.68833e+02
4092	6.71468e+02	4.09200e+03	-1.33439e-02	6.72000e+02
4111	6.74599e+02	4.11100e+03	-1.34896e-02	6.75167e+02
4130	6.77727e+02	4.13000e+03	-1.36028e-02	6.78333e+02
4149	6.80851e+02	4.14900e+03	-1.37865e-02	6.81500e+02
4168	6.83979e+02	4.16800e+03	-1.37705e-02	6.84667e+02
4187	6.87108e+02	4.18700e+03	-1.38001e-02	6.87833e+02
4206	6.90253e+02	4.20600e+03	-1.33573e-02	6.91000e+02
4225	6.93405e+02	4.22500e+03	-1.35949e-02	6.94167e+02
4244	6.95966e+02	4.24400e+03	-1.37707e-02	6.97333e+02
4260	6.97327e+02	4.26000e+03	-1.38910e-02	7.00000e+02