File: Experiments/TGA/TUBS/tga_nonisotherm/tga_dynamic_n2_dyn20_powder_1mg_r3.txt
index	ts	t	weight	tr
[#]	[°C]	[s]	[mg]	[°C]
723	1.31452e+02	7.23000e+02	9.84991e-01	1.31000e+02
733	1.34815e+02	7.33000e+02	9.84799e-01	1.34333e+02
743	1.38171e+02	7.43000e+02	9.84586e-01	1.37667e+02
753	1.41528e+02	7.53000e+02	9.84306e-01	1.41000e+02
763	1.44904e+02	7.63000e+02	9.84138e-01	1.44333e+02
773	1.48270e+02	7.73000e+02	9.83891e-01	1.47667e+02
783	1.51651e+02	7.83000e+02	9.83302e-01	1.51000e+02
793	1.55020e+02	7.93000e+02	9.82792e-01	1.54333e+02
803	1.58380e+02	8.03000e+02	9.82180e-01	1.57667e+02
813	1.61770e+02	8.13000e+02	9.81523e-01	1.61000e+02
823	1.65125e+02	8.23000e+02	9.80895e-01	1.64333e+02
833	1.68494e+02	8.33000e+02	9.80125e-01	1.67667e+02
843	1.71866e+02	8.43000e+02	9.79038e-01	1.71000e+02
853	1.75244e+02	8.53000e+02	9.77481e-01	1.74333e+02
863	1.78626e+02	8.63000e+02	9.75526e-01	1.77667e+02
873	1.81993e+02	8.73000e+02	9.72782e-01	1.81000e+02
883	1.85350e+02	8.83000e+02	9.69605e-01	1.84333e+02
893	1.88733e+02	8.93000e+02	9.65912e-01	1.87667e+02
903	1.92112e+02	9.03000e+02	9.62063e-01	1.91000e+02
913	1.95479e+02	9.13000e+02	9.58520e-01	1.94333e+02
923	1.98893e+02	9.23000e+02	9.55240e-01	1.97667e+02
933	2.02337e+02	9.33000e+02	9.52603e-01	2.01000e+02
943	2.05866e+02	9.43000e+02	9.50617e-01	2.04333e+02
953	2.09300e+02	9.53000e+02	9.49412e-01	2.07667e+02
963	2.12726e+02	9.63000e+02	9.48430e-01	2.11000e+02
973	2.16140e+02	9.73000e+02	9.47671e-01	2.14333e+02
983	2.19534e+02	9.83000e+02	9.46995e-01	2.17667e+02
993	2.22888e+02	9.93000e+02	9.46353e-01	2.21000e+02
1003	2.26278e+02	1.00300e+03	9.45672e-01	2.24333e+02
1013	2.29642e+02	1.01300e+03	9.44758e-01	2.27667e+02
1023	2.33003e+02	1.02300e+03	9.44134e-01	2.31000e+02
1033	2.36442e+02	1.03300e+03	9.43317e-01	2.34333e+02
1043	2.39842e+02	1.04300e+03	9.42698e-01	2.37667e+02
1053	2.43166e+02	1.05300e+03	9.42236e-01	2.41000e+02
1063	2.46506e+02	1.06300e+03	9.41666e-01	2.44333e+02
1073	2.49875e+02	1.07300e+03	9.41246e-01	2.47667e+02
1083	2.53216e+02	1.08300e+03	9.40885e-01	2.51000e+02
1093	2.56539e+02	1.09300e+03	9.40455e-01	2.54333e+02
1103	2.59902e+02	1.10300e+03	9.39999e-01	2.57667e+02
1113	2.63281e+02	1.11300e+03	9.39507e-01	2.61000e+02
1123	2.66671e+02	1.12300e+03	9.39014e-01	2.64333e+02
1133	2.70027e+02	1.13300e+03	9.38473e-01	2.67667e+02
1143	2.73387e+02	1.14300e+03	9.37784e-01	2.71000e+02
1153	2.76784e+02	1.15300e+03	9.37019e-01	2.74333e+02
1163	2.80136e+02	1.16300e+03	9.35904e-01	2.77667e+02
1173	2.83495e+02	1.17300e+03	9.34599e-01	2.81000e+02
1183	2.86866e+02	1.18300e+03	9.33055e-01	2.84333e+02
1193	2.90172e+02	1.19300e+03	9.31072e-01	2.87667e+02
1203	2.93485e+02	1.20300e+03	9.28638e-01	2.91000e+02
1213	2.96880e+02	1.21300e+03	9.25540e-01	2.94333e+02
1223	3.00224e+02	1.22300e+03	9.21991e-01	2.97667e+02
1233	3.03552e+02	1.23300e+03	9.17682e-01	3.01000e+02
1243	3.06956e+02	1.24300e+03	9.13052e-01	3.04333e+02
1253	3.10404e+02	1.25300e+03	9.08109e-01	3.07667e+02
1263	3.13819e+02	1.26300e+03	9.02873e-01	3.11000e+02
1273	3.17236e+02	1.27300e+03	8.97597e-01	3.14333e+02
1283	3.20618e+02	1.28300e+03	8.92292e-01	3.17667e+02
1293	3.23983e+02	1.29300e+03	8.86570e-01	3.21000e+02
1303	3.27356e+02	1.30300e+03	8.80243e-01	3.24333e+02
1313	3.30653e+02	1.31300e+03	8.72517e-01	3.27667e+02
1323	3.33958e+02	1.32300e+03	8.63270e-01	3.31000e+02
1333	3.37331e+02	1.33300e+03	8.51550e-01	3.34333e+02
1343	3.40724e+02	1.34300e+03	8.37303e-01	3.37667e+02
1353	3.44079e+02	1.35300e+03	8.19464e-01	3.41000e+02
1363	3.47430e+02	1.36300e+03	7.97846e-01	3.44333e+02
1373	3.50820e+02	1.37300e+03	7.71706e-01	3.47667e+02
1383	3.54325e+02	1.38300e+03	7.40894e-01	3.51000e+02
1393	3.57932e+02	1.39300e+03	7.05079e-01	3.54333e+02
1403	3.61252e+02	1.40300e+03	6.64415e-01	3.57667e+02
1413	3.64785e+02	1.41300e+03	6.19236e-01	3.61000e+02
1423	3.68040e+02	1.42300e+03	5.70212e-01	3.64333e+02
1433	3.71359e+02	1.43300e+03	5.17405e-01	3.67667e+02
1443	3.74763e+02	1.44300e+03	4.62536e-01	3.71000e+02
1453	3.78098e+02	1.45300e+03	4.06821e-01	3.74333e+02
1463	3.81465e+02	1.46300e+03	3.49306e-01	3.77667e+02
1473	3.84992e+02	1.47300e+03	2.93552e-01	3.81000e+02
1483	3.88457e+02	1.48300e+03	2.40862e-01	3.84333e+02
1493	3.92032e+02	1.49300e+03	1.92835e-01	3.87667e+02
1503	3.95297e+02	1.50300e+03	1.50288e-01	3.91000e+02
1513	3.98393e+02	1.51300e+03	1.13691e-01	3.94333e+02
1523	4.01717e+02	1.52300e+03	8.30602e-02	3.97667e+02
1533	4.05403e+02	1.53300e+03	5.82625e-02	4.01000e+02
1543	4.08966e+02	1.54300e+03	3.84350e-02	4.04333e+02
1553	4.12365e+02	1.55300e+03	2.30739e-02	4.07667e+02
1563	4.15557e+02	1.56300e+03	1.16364e-02	4.11000e+02
1573	4.18813e+02	1.57300e+03	3.46409e-03	4.14333e+02
1583	4.21939e+02	1.58300e+03	-2.37594e-03	4.17667e+02
1593	4.25175e+02	1.59300e+03	-6.69418e-03	4.21000e+02
1603	4.28659e+02	1.60300e+03	-9.47883e-03	4.24333e+02
1613	4.31539e+02	1.61300e+03	-1.13511e-02	4.27667e+02
1623	4.34579e+02	1.62300e+03	-1.27766e-02	4.31000e+02
1633	4.37678e+02	1.63300e+03	-1.36831e-02	4.34333e+02
1643	4.40771e+02	1.64300e+03	-1.42826e-02	4.37667e+02
1653	4.43885e+02	1.65300e+03	-1.45396e-02	4.41000e+02
1663	4.47067e+02	1.66300e+03	-1.46710e-02	4.44333e+02
1673	4.50311e+02	1.67300e+03	-1.47843e-02	4.47667e+02
1683	4.53477e+02	1.68300e+03	-1.49256e-02	4.51000e+02
1693	4.56350e+02	1.69300e+03	-1.49808e-02	4.54333e+02
1703	4.59560e+02	1.70300e+03	-1.49177e-02	4.57667e+02
1713	4.62781e+02	1.71300e+03	-1.49621e-02	4.61000e+02
1723	4.66042e+02	1.72300e+03	-1.51001e-02	4.64333e+02
1733	4.69271e+02	1.73300e+03	-1.52024e-02	4.67667e+02
1743	4.72529e+02	1.74300e+03	-1.51829e-02	4.71000e+02
1753	4.75763e+02	1.75300e+03	-1.51258e-02	4.74333e+02
1763	4.79011e+02	1.76300e+03	-1.53663e-02	4.77667e+02
1773	4.82286e+02	1.77300e+03	-1.54329e-02	4.81000e+02
1783	4.85575e+02	1.78300e+03	-1.53444e-02	4.84333e+02
1793	4.88849e+02	1.79300e+03	-1.53586e-02	4.87667e+02
1803	4.92113e+02	1.80300e+03	-1.53518e-02	4.91000e+02
1813	4.95395e+02	1.81300e+03	-1.53198e-02	4.94333e+02
1823	4.98674e+02	1.82300e+03	-1.52668e-02	4.97667e+02
1833	5.01981e+02	1.83300e+03	-1.54102e-02	5.01000e+02
1843	5.05284e+02	1.84300e+03	-1.54679e-02	5.04333e+02
1853	5.08581e+02	1.85300e+03	-1.54821e-02	5.07667e+02
1863	5.11878e+02	1.86300e+03	-1.55141e-02	5.11000e+02
1873	5.15168e+02	1.87300e+03	-1.54654e-02	5.14333e+02
1883	5.18449e+02	1.88300e+03	-1.55467e-02	5.17667e+02
1893	5.21731e+02	1.89300e+03	-1.55479e-02	5.21000e+02
1903	5.25005e+02	1.90300e+03	-1.55198e-02	5.24333e+02
1913	5.28310e+02	1.91300e+03	-1.55382e-02	5.27667e+02
1923	5.31639e+02	1.92300e+03	-1.55579e-02	5.31000e+02
1933	5.34938e+02	1.93300e+03	-1.55078e-02	5.34333e+02
1943	5.38272e+02	1.94300e+03	-1.54810e-02	5.37667e+02
1953	5.41621e+02	1.95300e+03	-1.55131e-02	5.41000e+02
1963	5.45020e+02	1.96300e+03	-1.54972e-02	5.44333e+02
1973	5.48468e+02	1.97300e+03	-1.55425e-02	5.47667e+02
1983	5.51969e+02	1.98300e+03	-1.55390e-02	5.51000e+02
1993	5.55365e+02	1.99300e+03	-1.56676e-02	5.54333e+02
2003	5.58813e+02	2.00300e+03	-1.56602e-02	5.57667e+02
2013	5.62128e+02	2.01300e+03	-1.56035e-02	5.61000e+02
2023	5.65462e+02	2.02300e+03	-1.55604e-02	5.64333e+02
2033	5.68856e+02	2.03300e+03	-1.54665e-02	5.67667e+02
2043	5.72288e+02	2.04300e+03	-1.54640e-02	5.71000e+02
2053	5.75733e+02	2.05300e+03	-1.55890e-02	5.74333e+02
2063	5.79124e+02	2.06300e+03	-1.56043e-02	5.77667e+02
2073	5.82464e+02	2.07300e+03	-1.56198e-02	5.81000e+02
2083	5.85812e+02	2.08300e+03	-1.55638e-02	5.84333e+02
2093	5.89095e+02	2.09300e+03	-1.55347e-02	5.87667e+02
2103	5.92410e+02	2.10300e+03	-1.55340e-02	5.91000e+02
2113	5.95696e+02	2.11300e+03	-1.57045e-02	5.94333e+02
2123	5.98994e+02	2.12300e+03	-1.56510e-02	5.97667e+02
2133	6.02341e+02	2.13300e+03	-1.55805e-02	6.01000e+02
2143	6.05641e+02	2.14300e+03	-1.55725e-02	6.04333e+02
2153	6.08920e+02	2.15300e+03	-1.56132e-02	6.07667e+02
2163	6.12218e+02	2.16300e+03	-1.56009e-02	6.11000e+02
2173	6.15548e+02	2.17300e+03	-1.54322e-02	6.14333e+02
2183	6.18872e+02	2.18300e+03	-1.54745e-02	6.17667e+02
2193	6.22193e+02	2.19300e+03	-1.55949e-02	6.21000e+02
2203	6.25532e+02	2.20300e+03	-1.55119e-02	6.24333e+02
2213	6.28863e+02	2.21300e+03	-1.56561e-02	6.27667e+02
2223	6.32186e+02	2.22300e+03	-1.56270e-02	6.31000e+02
2233	6.35461e+02	2.23300e+03	-1.55639e-02	6.34333e+02
2243	6.38757e+02	2.24300e+03	-1.56835e-02	6.37667e+02
2253	6.42043e+02	2.25300e+03	-1.57964e-02	6.41000e+02
2263	6.45339e+02	2.26300e+03	-1.56697e-02	6.44333e+02
2273	6.48649e+02	2.27300e+03	-1.57298e-02	6.47667e+02
2283	6.51961e+02	2.28300e+03	-1.57785e-02	6.51000e+02
2293	6.55259e+02	2.29300e+03	-1.57671e-02	6.54333e+02
2303	6.58561e+02	2.30300e+03	-1.57448e-02	6.57667e+02
2313	6.61861e+02	2.31300e+03	-1.55310e-02	6.61000e+02
2323	6.65159e+02	2.32300e+03	-1.55208e-02	6.64333e+02
2333	6.68464e+02	2.33300e+03	-1.55266e-02	6.67667e+02
2343	6.71785e+02	2.34300e+03	-1.55225e-02	6.71000e+02
2353	6.75091e+02	2.35300e+03	-1.56778e-02	6.74333e+02
2363	6.78396e+02	2.36300e+03	-1.55987e-02	6.77667e+02
2373	6.81696e+02	2.37300e+03	-1.56458e-02	6.81000e+02
2383	6.85007e+02	2.38300e+03	-1.57262e-02	6.84333e+02
2393	6.88300e+02	2.39300e+03	-1.57430e-02	6.87667e+02
2403	6.91609e+02	2.40300e+03	-1.57695e-02	6.91000e+02
2413	6.93885e+02	2.41300e+03	-1.56916e-02	6.94333e+02
2423	6.95738e+02	2.42300e+03	-1.57689e-02	6.97667e+02
2430	6.96724e+02	2.43000e+03	-1.57167e-02	7.00000e+02