File: Experiments/TGA/TUBS/tga_nonisotherm/tga_dynamic_n2_dyn30_powder_3mg_r1.txt
index	ts	t	weight	tr
[#]	[°C]	[s]	[mg]	[°C]
683	1.30897e+02	6.83000e+02	3.00906e+00	1.31500e+02
689	1.33911e+02	6.89000e+02	3.00882e+00	1.34500e+02
695	1.36930e+02	6.95000e+02	3.00861e+00	1.37500e+02
701	1.39935e+02	7.01000e+02	3.00822e+00	1.40500e+02
707	1.42952e+02	7.07000e+02	3.00766e+00	1.43500e+02
713	1.45974e+02	7.13000e+02	3.00690e+00	1.46500e+02
719	1.49000e+02	7.19000e+02	3.00608e+00	1.49500e+02
725	1.51999e+02	7.25000e+02	3.00497e+00	1.52500e+02
731	1.55026e+02	7.31000e+02	3.00375e+00	1.55500e+02
737	1.58064e+02	7.37000e+02	3.00240e+00	1.58500e+02
743	1.61081e+02	7.43000e+02	3.00099e+00	1.61500e+02
749	1.64107e+02	7.49000e+02	2.99948e+00	1.64500e+02
755	1.67146e+02	7.55000e+02	2.99769e+00	1.67500e+02
761	1.70199e+02	7.61000e+02	2.99563e+00	1.70500e+02
767	1.73208e+02	7.67000e+02	2.99328e+00	1.73500e+02
773	1.76245e+02	7.73000e+02	2.99061e+00	1.76500e+02
779	1.79284e+02	7.79000e+02	2.98726e+00	1.79500e+02
785	1.82330e+02	7.85000e+02	2.98278e+00	1.82500e+02
791	1.85360e+02	7.91000e+02	2.97720e+00	1.85500e+02
797	1.88404e+02	7.97000e+02	2.97018e+00	1.88500e+02
803	1.91454e+02	8.03000e+02	2.96212e+00	1.91500e+02
809	1.94487e+02	8.09000e+02	2.95322e+00	1.94500e+02
815	1.97519e+02	8.15000e+02	2.94409e+00	1.97500e+02
821	2.00568e+02	8.21000e+02	2.93540e+00	2.00500e+02
827	2.03624e+02	8.27000e+02	2.92745e+00	2.03500e+02
833	2.06664e+02	8.33000e+02	2.92070e+00	2.06500e+02
839	2.09732e+02	8.39000e+02	2.91529e+00	2.09500e+02
845	2.12772e+02	8.45000e+02	2.91110e+00	2.12500e+02
851	2.15838e+02	8.51000e+02	2.90790e+00	2.15500e+02
857	2.18879e+02	8.57000e+02	2.90555e+00	2.18500e+02
863	2.21944e+02	8.63000e+02	2.90338e+00	2.21500e+02
869	2.24994e+02	8.69000e+02	2.90125e+00	2.24500e+02
875	2.28051e+02	8.75000e+02	2.89901e+00	2.27500e+02
881	2.31111e+02	8.81000e+02	2.89667e+00	2.30500e+02
887	2.34151e+02	8.87000e+02	2.89421e+00	2.33500e+02
893	2.37200e+02	8.93000e+02	2.89195e+00	2.36500e+02
899	2.40236e+02	8.99000e+02	2.88980e+00	2.39500e+02
905	2.43279e+02	9.05000e+02	2.88763e+00	2.42500e+02
911	2.46313e+02	9.11000e+02	2.88557e+00	2.45500e+02
917	2.49368e+02	9.17000e+02	2.88368e+00	2.48500e+02
923	2.52439e+02	9.23000e+02	2.88207e+00	2.51500e+02
929	2.55530e+02	9.29000e+02	2.88056e+00	2.54500e+02
935	2.58647e+02	9.35000e+02	2.87904e+00	2.57500e+02
941	2.61750e+02	9.41000e+02	2.87767e+00	2.60500e+02
947	2.64827e+02	9.47000e+02	2.87630e+00	2.63500e+02
953	2.67900e+02	9.53000e+02	2.87501e+00	2.66500e+02
959	2.70948e+02	9.59000e+02	2.87349e+00	2.69500e+02
965	2.74002e+02	9.65000e+02	2.87170e+00	2.72500e+02
971	2.77028e+02	9.71000e+02	2.86975e+00	2.75500e+02
977	2.80067e+02	9.77000e+02	2.86742e+00	2.78500e+02
983	2.83083e+02	9.83000e+02	2.86463e+00	2.81500e+02
989	2.86091e+02	9.89000e+02	2.86130e+00	2.84500e+02
995	2.89133e+02	9.95000e+02	2.85734e+00	2.87500e+02
1001	2.92177e+02	1.00100e+03	2.85253e+00	2.90500e+02
1007	2.95216e+02	1.00700e+03	2.84645e+00	2.93500e+02
1013	2.98241e+02	1.01300e+03	2.83921e+00	2.96500e+02
1019	3.01258e+02	1.01900e+03	2.83087e+00	2.99500e+02
1025	3.04245e+02	1.02500e+03	2.82125e+00	3.02500e+02
1031	3.07234e+02	1.03100e+03	2.81047e+00	3.05500e+02
1037	3.10193e+02	1.03700e+03	2.79852e+00	3.08500e+02
1043	3.13121e+02	1.04300e+03	2.78572e+00	3.11500e+02
1049	3.16060e+02	1.04900e+03	2.77202e+00	3.14500e+02
1055	3.19007e+02	1.05500e+03	2.75798e+00	3.17500e+02
1061	3.21952e+02	1.06100e+03	2.74366e+00	3.20500e+02
1067	3.24946e+02	1.06700e+03	2.72908e+00	3.23500e+02
1073	3.27930e+02	1.07300e+03	2.71381e+00	3.26500e+02
1079	3.30939e+02	1.07900e+03	2.69719e+00	3.29500e+02
1085	3.33962e+02	1.08500e+03	2.67782e+00	3.32500e+02
1091	3.37013e+02	1.09100e+03	2.65491e+00	3.35500e+02
1097	3.40073e+02	1.09700e+03	2.62699e+00	3.38500e+02
1103	3.43175e+02	1.10300e+03	2.59378e+00	3.41500e+02
1109	3.46192e+02	1.10900e+03	2.55336e+00	3.44500e+02
1115	3.49186e+02	1.11500e+03	2.50577e+00	3.47500e+02
1121	3.52226e+02	1.12100e+03	2.44886e+00	3.50500e+02
1127	3.55196e+02	1.12700e+03	2.38306e+00	3.53500e+02
1133	3.58155e+02	1.13300e+03	2.30680e+00	3.56500e+02
1139	3.61101e+02	1.13900e+03	2.22127e+00	3.59500e+02
1145	3.64038e+02	1.14500e+03	2.12530e+00	3.62500e+02
1151	3.66990e+02	1.15100e+03	2.02099e+00	3.65500e+02
1157	3.69935e+02	1.15700e+03	1.90773e+00	3.68500e+02
1163	3.72884e+02	1.16300e+03	1.78679e+00	3.71500e+02
1169	3.75856e+02	1.16900e+03	1.65829e+00	3.74500e+02
1175	3.78848e+02	1.17500e+03	1.52492e+00	3.77500e+02
1181	3.81856e+02	1.18100e+03	1.38667e+00	3.80500e+02
1187	3.84816e+02	1.18700e+03	1.24476e+00	3.83500e+02
1193	3.87812e+02	1.19300e+03	1.10474e+00	3.86500e+02
1199	3.90798e+02	1.19900e+03	9.68685e-01	3.89500e+02
1205	3.93809e+02	1.20500e+03	8.37493e-01	3.92500e+02
1211	3.96832e+02	1.21100e+03	7.11406e-01	3.95500e+02
1217	3.99866e+02	1.21700e+03	5.94558e-01	3.98500e+02
1223	4.02954e+02	1.22300e+03	4.89342e-01	4.01500e+02
1229	4.06005e+02	1.22900e+03	3.98864e-01	4.04500e+02
1235	4.09026e+02	1.23500e+03	3.21452e-01	4.07500e+02
1241	4.12068e+02	1.24100e+03	2.58299e-01	4.10500e+02
1247	4.15101e+02	1.24700e+03	2.06175e-01	4.13500e+02
1253	4.18089e+02	1.25300e+03	1.65326e-01	4.16500e+02
1259	4.21071e+02	1.25900e+03	1.32993e-01	4.19500e+02
1265	4.24032e+02	1.26500e+03	1.09134e-01	4.22500e+02
1271	4.27022e+02	1.27100e+03	9.11497e-02	4.25500e+02
1277	4.30014e+02	1.27700e+03	7.86373e-02	4.28500e+02
1283	4.32994e+02	1.28300e+03	6.96162e-02	4.31500e+02
1289	4.36003e+02	1.28900e+03	6.36292e-02	4.34500e+02
1295	4.38998e+02	1.29500e+03	5.94157e-02	4.37500e+02
1301	4.41938e+02	1.30100e+03	5.65802e-02	4.40500e+02
1307	4.44902e+02	1.30700e+03	5.46169e-02	4.43500e+02
1313	4.47875e+02	1.31300e+03	5.34719e-02	4.46500e+02
1319	4.50898e+02	1.31900e+03	5.26772e-02	4.49500e+02
1325	4.53861e+02	1.32500e+03	5.20833e-02	4.52500e+02
1331	4.56784e+02	1.33100e+03	5.16597e-02	4.55500e+02
1337	4.59631e+02	1.33700e+03	5.13703e-02	4.58500e+02
1343	4.62513e+02	1.34300e+03	5.12483e-02	4.61500e+02
1349	4.65429e+02	1.34900e+03	5.12593e-02	4.64500e+02
1355	4.68332e+02	1.35500e+03	5.12376e-02	4.67500e+02
1361	4.71252e+02	1.36100e+03	5.10826e-02	4.70500e+02
1367	4.74185e+02	1.36700e+03	5.09858e-02	4.73500e+02
1373	4.77103e+02	1.37300e+03	5.09410e-02	4.76500e+02
1379	4.80064e+02	1.37900e+03	5.07929e-02	4.79500e+02
1385	4.83017e+02	1.38500e+03	5.06108e-02	4.82500e+02
1391	4.85981e+02	1.39100e+03	5.05392e-02	4.85500e+02
1397	4.88943e+02	1.39700e+03	5.06030e-02	4.88500e+02
1403	4.91888e+02	1.40300e+03	5.05770e-02	4.91500e+02
1409	4.94787e+02	1.40900e+03	5.03086e-02	4.94500e+02
1415	4.97694e+02	1.41500e+03	5.01857e-02	4.97500e+02
1421	5.00608e+02	1.42100e+03	5.01456e-02	5.00500e+02
1427	5.03502e+02	1.42700e+03	5.00068e-02	5.03500e+02
1433	5.06412e+02	1.43300e+03	4.99220e-02	5.06500e+02
1439	5.09323e+02	1.43900e+03	4.99181e-02	5.09500e+02
1445	5.12233e+02	1.44500e+03	4.97915e-02	5.12500e+02
1451	5.15147e+02	1.45100e+03	4.94735e-02	5.15500e+02
1457	5.18060e+02	1.45700e+03	4.96713e-02	5.18500e+02
1463	5.20962e+02	1.46300e+03	5.00424e-02	5.21500e+02
1469	5.23890e+02	1.46900e+03	4.98934e-02	5.24500e+02
1475	5.26798e+02	1.47500e+03	4.97297e-02	5.27500e+02
1481	5.29717e+02	1.48100e+03	4.96578e-02	5.30500e+02
1487	5.32649e+02	1.48700e+03	4.95951e-02	5.33500e+02
1493	5.35587e+02	1.49300e+03	4.96073e-02	5.36500e+02
1499	5.38527e+02	1.49900e+03	4.95757e-02	5.39500e+02
1505	5.41472e+02	1.50500e+03	4.94716e-02	5.42500e+02
1511	5.44425e+02	1.51100e+03	4.94589e-02	5.45500e+02
1517	5.47387e+02	1.51700e+03	4.94739e-02	5.48500e+02
1523	5.50337e+02	1.52300e+03	4.94495e-02	5.51500e+02
1529	5.53297e+02	1.52900e+03	4.92441e-02	5.54500e+02
1535	5.56273e+02	1.53500e+03	4.89283e-02	5.57500e+02
1541	5.59239e+02	1.54100e+03	4.92926e-02	5.60500e+02
1547	5.62228e+02	1.54700e+03	4.93378e-02	5.63500e+02
1553	5.65209e+02	1.55300e+03	4.92351e-02	5.66500e+02
1559	5.68210e+02	1.55900e+03	4.92367e-02	5.69500e+02
1565	5.71303e+02	1.56500e+03	4.91986e-02	5.72500e+02
1571	5.74556e+02	1.57100e+03	4.91600e-02	5.75500e+02
1577	5.77558e+02	1.57700e+03	4.91055e-02	5.78500e+02
1583	5.80563e+02	1.58300e+03	4.90480e-02	5.81500e+02
1589	5.83609e+02	1.58900e+03	4.90492e-02	5.84500e+02
1595	5.86710e+02	1.59500e+03	4.91076e-02	5.87500e+02
1601	5.89771e+02	1.60100e+03	4.90229e-02	5.90500e+02
1607	5.92836e+02	1.60700e+03	4.88746e-02	5.93500e+02
1613	5.95839e+02	1.61300e+03	4.87726e-02	5.96500e+02
1619	5.98855e+02	1.61900e+03	4.87591e-02	5.99500e+02
1625	6.01808e+02	1.62500e+03	4.86639e-02	6.02500e+02
1631	6.04777e+02	1.63100e+03	4.86127e-02	6.05500e+02
1637	6.07762e+02	1.63700e+03	4.87104e-02	6.08500e+02
1643	6.10707e+02	1.64300e+03	4.87475e-02	6.11500e+02
1649	6.13663e+02	1.64900e+03	4.87103e-02	6.14500e+02
1655	6.16579e+02	1.65500e+03	4.87508e-02	6.17500e+02
1661	6.19513e+02	1.66100e+03	4.87603e-02	6.20500e+02
1667	6.22434e+02	1.66700e+03	4.86240e-02	6.23500e+02
1673	6.25380e+02	1.67300e+03	4.86775e-02	6.26500e+02
1679	6.28320e+02	1.67900e+03	4.86703e-02	6.29500e+02
1685	6.31268e+02	1.68500e+03	4.85918e-02	6.32500e+02
1691	6.34223e+02	1.69100e+03	4.85333e-02	6.35500e+02
1697	6.37185e+02	1.69700e+03	4.85573e-02	6.38500e+02
1703	6.40186e+02	1.70300e+03	4.86376e-02	6.41500e+02
1709	6.43160e+02	1.70900e+03	4.86036e-02	6.44500e+02
1715	6.46126e+02	1.71500e+03	4.85418e-02	6.47500e+02
1721	6.49103e+02	1.72100e+03	4.83231e-02	6.50500e+02
1727	6.52085e+02	1.72700e+03	4.81427e-02	6.53500e+02
1733	6.55045e+02	1.73300e+03	4.87566e-02	6.56500e+02
1739	6.58026e+02	1.73900e+03	4.88660e-02	6.59500e+02
1745	6.61017e+02	1.74500e+03	4.85139e-02	6.62500e+02
1751	6.63994e+02	1.75100e+03	4.83140e-02	6.65500e+02
1757	6.66972e+02	1.75700e+03	4.83434e-02	6.68500e+02
1763	6.69944e+02	1.76300e+03	4.83516e-02	6.71500e+02
1769	6.72904e+02	1.76900e+03	4.83592e-02	6.74500e+02
1775	6.75888e+02	1.77500e+03	4.83959e-02	6.77500e+02
1781	6.78857e+02	1.78100e+03	4.82535e-02	6.80500e+02
1787	6.81834e+02	1.78700e+03	4.79725e-02	6.83500e+02
1793	6.84836e+02	1.79300e+03	4.78146e-02	6.86500e+02
1799	6.86796e+02	1.79900e+03	4.84108e-02	6.89500e+02
1805	6.88825e+02	1.80500e+03	4.85392e-02	6.92500e+02
1811	6.90523e+02	1.81100e+03	4.83291e-02	6.95500e+02
1817	6.91924e+02	1.81700e+03	4.83392e-02	6.98500e+02
1820	6.92546e+02	1.82000e+03	4.83792e-02	7.00000e+02