File: Experiments/TUBS/tga_nonisotherm/tga_dynamic_n2_dyn20_piece_3mg_r1.txt
index	ts	t	weight	tr
[#]	[°C]	[s]	[mg]	[°C]
723	1.29770e+02	7.23000e+02	3.00624e+00	1.31000e+02
733	1.33087e+02	7.33000e+02	3.00606e+00	1.34333e+02
743	1.36431e+02	7.43000e+02	3.00606e+00	1.37667e+02
753	1.39750e+02	7.53000e+02	3.00578e+00	1.41000e+02
763	1.43078e+02	7.63000e+02	3.00574e+00	1.44333e+02
773	1.46425e+02	7.73000e+02	3.00564e+00	1.47667e+02
783	1.49777e+02	7.83000e+02	3.00554e+00	1.51000e+02
793	1.53134e+02	7.93000e+02	3.00528e+00	1.54333e+02
803	1.56488e+02	8.03000e+02	3.00514e+00	1.57667e+02
813	1.59855e+02	8.13000e+02	3.00495e+00	1.61000e+02
823	1.63236e+02	8.23000e+02	3.00481e+00	1.64333e+02
833	1.66616e+02	8.33000e+02	3.00471e+00	1.67667e+02
843	1.69990e+02	8.43000e+02	3.00454e+00	1.71000e+02
853	1.73362e+02	8.53000e+02	3.00430e+00	1.74333e+02
863	1.76756e+02	8.63000e+02	3.00388e+00	1.77667e+02
873	1.80144e+02	8.73000e+02	3.00345e+00	1.81000e+02
883	1.83524e+02	8.83000e+02	3.00282e+00	1.84333e+02
893	1.86901e+02	8.93000e+02	3.00191e+00	1.87667e+02
903	1.90289e+02	9.03000e+02	3.00085e+00	1.91000e+02
913	1.93683e+02	9.13000e+02	2.99903e+00	1.94333e+02
923	1.97090e+02	9.23000e+02	2.99723e+00	1.97667e+02
933	2.00475e+02	9.33000e+02	2.99514e+00	2.01000e+02
943	2.03891e+02	9.43000e+02	2.99272e+00	2.04333e+02
953	2.07284e+02	9.53000e+02	2.99018e+00	2.07667e+02
963	2.10693e+02	9.63000e+02	2.98762e+00	2.11000e+02
973	2.14097e+02	9.73000e+02	2.98508e+00	2.14333e+02
983	2.17490e+02	9.83000e+02	2.98260e+00	2.17667e+02
993	2.20898e+02	9.93000e+02	2.97980e+00	2.21000e+02
1003	2.24285e+02	1.00300e+03	2.97711e+00	2.24333e+02
1013	2.27643e+02	1.01300e+03	2.97406e+00	2.27667e+02
1023	2.30993e+02	1.02300e+03	2.97107e+00	2.31000e+02
1033	2.34327e+02	1.03300e+03	2.96790e+00	2.34333e+02
1043	2.37689e+02	1.04300e+03	2.96472e+00	2.37667e+02
1053	2.41116e+02	1.05300e+03	2.96149e+00	2.41000e+02
1063	2.44551e+02	1.06300e+03	2.95803e+00	2.44333e+02
1073	2.47960e+02	1.07300e+03	2.95456e+00	2.47667e+02
1083	2.51367e+02	1.08300e+03	2.95111e+00	2.51000e+02
1093	2.54730e+02	1.09300e+03	2.94749e+00	2.54333e+02
1103	2.58134e+02	1.10300e+03	2.94382e+00	2.57667e+02
1113	2.61572e+02	1.11300e+03	2.94006e+00	2.61000e+02
1123	2.65006e+02	1.12300e+03	2.93624e+00	2.64333e+02
1133	2.68445e+02	1.13300e+03	2.93260e+00	2.67667e+02
1143	2.71876e+02	1.14300e+03	2.92870e+00	2.71000e+02
1153	2.75298e+02	1.15300e+03	2.92469e+00	2.74333e+02
1163	2.78671e+02	1.16300e+03	2.92056e+00	2.77667e+02
1173	2.82000e+02	1.17300e+03	2.91628e+00	2.81000e+02
1183	2.85324e+02	1.18300e+03	2.91172e+00	2.84333e+02
1193	2.88726e+02	1.19300e+03	2.90680e+00	2.87667e+02
1203	2.92158e+02	1.20300e+03	2.90140e+00	2.91000e+02
1213	2.95598e+02	1.21300e+03	2.89541e+00	2.94333e+02
1223	2.98949e+02	1.22300e+03	2.88864e+00	2.97667e+02
1233	3.02252e+02	1.23300e+03	2.88114e+00	3.01000e+02
1243	3.05572e+02	1.24300e+03	2.87284e+00	3.04333e+02
1253	3.08931e+02	1.25300e+03	2.86346e+00	3.07667e+02
1263	3.12337e+02	1.26300e+03	2.85378e+00	3.11000e+02
1273	3.15683e+02	1.27300e+03	2.84320e+00	3.14333e+02
1283	3.19077e+02	1.28300e+03	2.83260e+00	3.17667e+02
1293	3.22607e+02	1.29300e+03	2.82092e+00	3.21000e+02
1303	3.25924e+02	1.30300e+03	2.80898e+00	3.24333e+02
1313	3.29328e+02	1.31300e+03	2.79577e+00	3.27667e+02
1323	3.32694e+02	1.32300e+03	2.78087e+00	3.31000e+02
1333	3.36051e+02	1.33300e+03	2.76327e+00	3.34333e+02
1343	3.39367e+02	1.34300e+03	2.74246e+00	3.37667e+02
1353	3.42698e+02	1.35300e+03	2.71686e+00	3.41000e+02
1363	3.46108e+02	1.36300e+03	2.68561e+00	3.44333e+02
1373	3.49555e+02	1.37300e+03	2.64598e+00	3.47667e+02
1383	3.52993e+02	1.38300e+03	2.59143e+00	3.51000e+02
1393	3.56237e+02	1.39300e+03	2.51750e+00	3.54333e+02
1403	3.59358e+02	1.40300e+03	2.42984e+00	3.57667e+02
1413	3.62523e+02	1.41300e+03	2.32643e+00	3.61000e+02
1423	3.65729e+02	1.42300e+03	2.20595e+00	3.64333e+02
1433	3.68958e+02	1.43300e+03	2.06661e+00	3.67667e+02
1443	3.72210e+02	1.44300e+03	1.91171e+00	3.71000e+02
1453	3.75449e+02	1.45300e+03	1.74412e+00	3.74333e+02
1463	3.78722e+02	1.46300e+03	1.56992e+00	3.77667e+02
1473	3.81980e+02	1.47300e+03	1.39047e+00	3.81000e+02
1483	3.85252e+02	1.48300e+03	1.21106e+00	3.84333e+02
1493	3.88599e+02	1.49300e+03	1.03008e+00	3.87667e+02
1503	3.91973e+02	1.50300e+03	8.52255e-01	3.91000e+02
1513	3.95341e+02	1.51300e+03	6.71375e-01	3.94333e+02
1523	3.98777e+02	1.52300e+03	5.05033e-01	3.97667e+02
1533	4.02166e+02	1.53300e+03	3.68121e-01	4.01000e+02
1543	4.05557e+02	1.54300e+03	2.61293e-01	4.04333e+02
1553	4.08967e+02	1.55300e+03	1.81945e-01	4.07667e+02
1563	4.12383e+02	1.56300e+03	1.23636e-01	4.11000e+02
1573	4.15840e+02	1.57300e+03	8.35925e-02	4.14333e+02
1583	4.19306e+02	1.58300e+03	5.65148e-02	4.17667e+02
1593	4.22661e+02	1.59300e+03	3.86557e-02	4.21000e+02
1603	4.26106e+02	1.60300e+03	2.65863e-02	4.24333e+02
1613	4.29534e+02	1.61300e+03	1.83896e-02	4.27667e+02
1623	4.32745e+02	1.62300e+03	1.26606e-02	4.31000e+02
1633	4.36048e+02	1.63300e+03	8.72230e-03	4.34333e+02
1643	4.39322e+02	1.64300e+03	5.67469e-03	4.37667e+02
1653	4.42386e+02	1.65300e+03	3.43595e-03	4.41000e+02
1663	4.45586e+02	1.66300e+03	1.90289e-03	4.44333e+02
1673	4.48839e+02	1.67300e+03	7.69068e-04	4.47667e+02
1683	4.52118e+02	1.68300e+03	2.63065e-05	4.51000e+02
1693	4.55459e+02	1.69300e+03	-3.09507e-04	4.54333e+02
1703	4.58837e+02	1.70300e+03	-5.26083e-04	4.57667e+02
1713	4.62159e+02	1.71300e+03	-8.38898e-04	4.61000e+02
1723	4.65415e+02	1.72300e+03	-1.14716e-03	4.64333e+02
1733	4.68679e+02	1.73300e+03	-1.36267e-03	4.67667e+02
1743	4.71924e+02	1.74300e+03	-1.36369e-03	4.71000e+02
1753	4.75111e+02	1.75300e+03	-1.51022e-03	4.74333e+02
1763	4.78352e+02	1.76300e+03	-1.74831e-03	4.77667e+02
1773	4.81611e+02	1.77300e+03	-1.80780e-03	4.81000e+02
1783	4.84903e+02	1.78300e+03	-1.81305e-03	4.84333e+02
1793	4.88218e+02	1.79300e+03	-1.95235e-03	4.87667e+02
1803	4.91537e+02	1.80300e+03	-2.12022e-03	4.91000e+02
1813	4.94999e+02	1.81300e+03	-2.02052e-03	4.94333e+02
1823	4.98444e+02	1.82300e+03	-2.13305e-03	4.97667e+02
1833	5.01798e+02	1.83300e+03	-2.27249e-03	5.01000e+02
1843	5.04981e+02	1.84300e+03	-2.45603e-03	5.04333e+02
1853	5.08168e+02	1.85300e+03	-2.34460e-03	5.07667e+02
1863	5.11536e+02	1.86300e+03	-2.38056e-03	5.11000e+02
1873	5.14903e+02	1.87300e+03	-2.78819e-03	5.14333e+02
1883	5.18027e+02	1.88300e+03	-2.76879e-03	5.17667e+02
1893	5.21279e+02	1.89300e+03	-2.75263e-03	5.21000e+02
1903	5.24502e+02	1.90300e+03	-2.76139e-03	5.24333e+02
1913	5.27740e+02	1.91300e+03	-2.74272e-03	5.27667e+02
1923	5.30980e+02	1.92300e+03	-2.79298e-03	5.31000e+02
1933	5.34087e+02	1.93300e+03	-2.78287e-03	5.34333e+02
1943	5.37237e+02	1.94300e+03	-2.77302e-03	5.37667e+02
1953	5.40495e+02	1.95300e+03	-2.92527e-03	5.41000e+02
1963	5.43784e+02	1.96300e+03	-2.93196e-03	5.44333e+02
1973	5.47136e+02	1.97300e+03	-2.95156e-03	5.47667e+02
1983	5.50469e+02	1.98300e+03	-3.00508e-03	5.51000e+02
1993	5.53827e+02	1.99300e+03	-3.11363e-03	5.54333e+02
2003	5.57143e+02	2.00300e+03	-3.14086e-03	5.57667e+02
2013	5.60368e+02	2.01300e+03	-3.14994e-03	5.61000e+02
2023	5.63652e+02	2.02300e+03	-3.14917e-03	5.64333e+02
2033	5.66943e+02	2.03300e+03	-3.06451e-03	5.67667e+02
2043	5.70222e+02	2.04300e+03	-3.25037e-03	5.71000e+02
2053	5.73472e+02	2.05300e+03	-3.29164e-03	5.74333e+02
2063	5.76699e+02	2.06300e+03	-3.30380e-03	5.77667e+02
2073	5.79966e+02	2.07300e+03	-3.40870e-03	5.81000e+02
2083	5.83232e+02	2.08300e+03	-3.60137e-03	5.84333e+02
2093	5.86528e+02	2.09300e+03	-3.54212e-03	5.87667e+02
2103	5.89829e+02	2.10300e+03	-3.42049e-03	5.91000e+02
2113	5.93154e+02	2.11300e+03	-3.62673e-03	5.94333e+02
2123	5.96489e+02	2.12300e+03	-3.53974e-03	5.97667e+02
2133	5.99860e+02	2.13300e+03	-3.45514e-03	6.01000e+02
2143	6.03555e+02	2.14300e+03	-3.19489e-03	6.04333e+02
2153	6.06795e+02	2.15300e+03	-3.85563e-03	6.07667e+02
2163	6.10087e+02	2.16300e+03	-3.71763e-03	6.11000e+02
2173	6.13371e+02	2.17300e+03	-3.64732e-03	6.14333e+02
2183	6.16781e+02	2.18300e+03	-3.69347e-03	6.17667e+02
2193	6.20377e+02	2.19300e+03	-3.77024e-03	6.21000e+02
2203	6.23531e+02	2.20300e+03	-3.80690e-03	6.24333e+02
2213	6.26797e+02	2.21300e+03	-3.88479e-03	6.27667e+02
2223	6.30065e+02	2.22300e+03	-3.97015e-03	6.31000e+02
2233	6.33350e+02	2.23300e+03	-3.98846e-03	6.34333e+02
2243	6.36655e+02	2.24300e+03	-4.04320e-03	6.37667e+02
2253	6.39972e+02	2.25300e+03	-4.03424e-03	6.41000e+02
2263	6.43290e+02	2.26300e+03	-4.17173e-03	6.44333e+02
2273	6.46615e+02	2.27300e+03	-4.13804e-03	6.47667e+02
2283	6.49894e+02	2.28300e+03	-4.13063e-03	6.51000e+02
2293	6.53201e+02	2.29300e+03	-4.04352e-03	6.54333e+02
2303	6.56499e+02	2.30300e+03	-4.07004e-03	6.57667e+02
2313	6.59808e+02	2.31300e+03	-4.01707e-03	6.61000e+02
2323	6.63135e+02	2.32300e+03	-4.00806e-03	6.64333e+02
2333	6.66473e+02	2.33300e+03	-4.11211e-03	6.67667e+02
2343	6.69823e+02	2.34300e+03	-4.17370e-03	6.71000e+02
2353	6.73157e+02	2.35300e+03	-4.27287e-03	6.74333e+02
2363	6.76533e+02	2.36300e+03	-4.31467e-03	6.77667e+02
2373	6.79895e+02	2.37300e+03	-4.45187e-03	6.81000e+02
2383	6.83141e+02	2.38300e+03	-4.44163e-03	6.84333e+02
2393	6.86407e+02	2.39300e+03	-4.49419e-03	6.87667e+02
2403	6.89710e+02	2.40300e+03	-4.58140e-03	6.91000e+02
2413	6.91892e+02	2.41300e+03	-4.46491e-03	6.94333e+02
2423	6.93668e+02	2.42300e+03	-4.55986e-03	6.97667e+02
2430	6.94643e+02	2.43000e+03	-4.54118e-03	7.00000e+02