File: Experiments/TUBS/tga_nonisotherm/tga_dynamic_n2_dyn5_powder_1mg_r2.txt
index	ts	t	weight	tr
[#]	[°C]	[s]	[mg]	[°C]
1083	1.30283e+02	1.08300e+03	1.03931e+00	1.30250e+02
1120	1.33373e+02	1.12000e+03	1.03891e+00	1.33333e+02
1157	1.36464e+02	1.15700e+03	1.03857e+00	1.36417e+02
1194	1.39542e+02	1.19400e+03	1.03820e+00	1.39500e+02
1231	1.42632e+02	1.23100e+03	1.03751e+00	1.42583e+02
1268	1.45734e+02	1.26800e+03	1.03692e+00	1.45667e+02
1305	1.48812e+02	1.30500e+03	1.03613e+00	1.48750e+02
1342	1.51907e+02	1.34200e+03	1.03526e+00	1.51833e+02
1379	1.54984e+02	1.37900e+03	1.03432e+00	1.54917e+02
1416	1.58094e+02	1.41600e+03	1.03300e+00	1.58000e+02
1453	1.61181e+02	1.45300e+03	1.03121e+00	1.61083e+02
1490	1.64308e+02	1.49000e+03	1.02863e+00	1.64167e+02
1527	1.67400e+02	1.52700e+03	1.02541e+00	1.67250e+02
1564	1.70478e+02	1.56400e+03	1.02134e+00	1.70333e+02
1601	1.73576e+02	1.60100e+03	1.01663e+00	1.73417e+02
1638	1.76671e+02	1.63800e+03	1.01214e+00	1.76500e+02
1675	1.79763e+02	1.67500e+03	1.00833e+00	1.79583e+02
1712	1.82840e+02	1.71200e+03	1.00499e+00	1.82667e+02
1749	1.85930e+02	1.74900e+03	1.00257e+00	1.85750e+02
1786	1.89032e+02	1.78600e+03	1.00097e+00	1.88833e+02
1823	1.92120e+02	1.82300e+03	1.00007e+00	1.91917e+02
1860	1.95214e+02	1.86000e+03	9.99214e-01	1.95000e+02
1897	1.98297e+02	1.89700e+03	9.98385e-01	1.98083e+02
1934	2.01383e+02	1.93400e+03	9.97746e-01	2.01167e+02
1971	2.04478e+02	1.97100e+03	9.97032e-01	2.04250e+02
2008	2.07567e+02	2.00800e+03	9.96437e-01	2.07333e+02
2045	2.10661e+02	2.04500e+03	9.95877e-01	2.10417e+02
2082	2.13755e+02	2.08200e+03	9.95493e-01	2.13500e+02
2119	2.16843e+02	2.11900e+03	9.95122e-01	2.16583e+02
2156	2.19930e+02	2.15600e+03	9.94789e-01	2.19667e+02
2193	2.23007e+02	2.19300e+03	9.94536e-01	2.22750e+02
2230	2.26089e+02	2.23000e+03	9.94406e-01	2.25833e+02
2267	2.29180e+02	2.26700e+03	9.94070e-01	2.28917e+02
2304	2.32274e+02	2.30400e+03	9.93871e-01	2.32000e+02
2341	2.35362e+02	2.34100e+03	9.93616e-01	2.35083e+02
2378	2.38446e+02	2.37800e+03	9.93419e-01	2.38167e+02
2415	2.41527e+02	2.41500e+03	9.93158e-01	2.41250e+02
2452	2.44617e+02	2.45200e+03	9.92599e-01	2.44333e+02
2489	2.47686e+02	2.48900e+03	9.92128e-01	2.47417e+02
2526	2.50785e+02	2.52600e+03	9.91785e-01	2.50500e+02
2563	2.53866e+02	2.56300e+03	9.91134e-01	2.53583e+02
2600	2.56952e+02	2.60000e+03	9.90413e-01	2.56667e+02
2637	2.60045e+02	2.63700e+03	9.89642e-01	2.59750e+02
2674	2.63107e+02	2.67400e+03	9.88662e-01	2.62833e+02
2711	2.66193e+02	2.71100e+03	9.87407e-01	2.65917e+02
2748	2.69257e+02	2.74800e+03	9.85895e-01	2.69000e+02
2785	2.72345e+02	2.78500e+03	9.83987e-01	2.72083e+02
2822	2.75424e+02	2.82200e+03	9.81745e-01	2.75167e+02
2859	2.78508e+02	2.85900e+03	9.78626e-01	2.78250e+02
2896	2.81592e+02	2.89600e+03	9.75125e-01	2.81333e+02
2933	2.84684e+02	2.93300e+03	9.71076e-01	2.84417e+02
2970	2.87752e+02	2.97000e+03	9.66562e-01	2.87500e+02
3007	2.90830e+02	3.00700e+03	9.61547e-01	2.90583e+02
3044	2.93911e+02	3.04400e+03	9.56290e-01	2.93667e+02
3081	2.96995e+02	3.08100e+03	9.51059e-01	2.96750e+02
3118	3.00070e+02	3.11800e+03	9.45646e-01	2.99833e+02
3155	3.03144e+02	3.15500e+03	9.40408e-01	3.02917e+02
3192	3.06226e+02	3.19200e+03	9.34834e-01	3.06000e+02
3229	3.09292e+02	3.22900e+03	9.28409e-01	3.09083e+02
3266	3.12358e+02	3.26600e+03	9.21144e-01	3.12167e+02
3303	3.15432e+02	3.30300e+03	9.12501e-01	3.15250e+02
3340	3.18508e+02	3.34000e+03	9.01866e-01	3.18333e+02
3377	3.21584e+02	3.37700e+03	8.88744e-01	3.21417e+02
3414	3.24660e+02	3.41400e+03	8.72701e-01	3.24500e+02
3451	3.27722e+02	3.45100e+03	8.52739e-01	3.27583e+02
3488	3.30801e+02	3.48800e+03	8.28481e-01	3.30667e+02
3525	3.33878e+02	3.52500e+03	7.99522e-01	3.33750e+02
3562	3.36936e+02	3.56200e+03	7.65473e-01	3.36833e+02
3599	3.40011e+02	3.59900e+03	7.26459e-01	3.39917e+02
3636	3.43073e+02	3.63600e+03	6.83052e-01	3.43000e+02
3673	3.46163e+02	3.67300e+03	6.35548e-01	3.46083e+02
3710	3.49234e+02	3.71000e+03	5.84745e-01	3.49167e+02
3747	3.52308e+02	3.74700e+03	5.32326e-01	3.52250e+02
3784	3.55380e+02	3.78400e+03	4.79013e-01	3.55333e+02
3821	3.58456e+02	3.82100e+03	4.25368e-01	3.58417e+02
3858	3.61532e+02	3.85800e+03	3.71723e-01	3.61500e+02
3895	3.64609e+02	3.89500e+03	3.20672e-01	3.64583e+02
3932	3.67681e+02	3.93200e+03	2.73860e-01	3.67667e+02
3969	3.70770e+02	3.96900e+03	2.32166e-01	3.70750e+02
4006	3.73846e+02	4.00600e+03	1.95797e-01	3.73833e+02
4043	3.76934e+02	4.04300e+03	1.64989e-01	3.76917e+02
4080	3.80015e+02	4.08000e+03	1.39689e-01	3.80000e+02
4117	3.83096e+02	4.11700e+03	1.19222e-01	3.83083e+02
4154	3.86175e+02	4.15400e+03	1.03021e-01	3.86167e+02
4191	3.89252e+02	4.19100e+03	9.09884e-02	3.89250e+02
4228	3.92320e+02	4.22800e+03	8.14287e-02	3.92333e+02
4265	3.95399e+02	4.26500e+03	7.49953e-02	3.95417e+02
4302	3.98466e+02	4.30200e+03	7.04840e-02	3.98500e+02
4339	4.01535e+02	4.33900e+03	6.68718e-02	4.01583e+02
4376	4.04600e+02	4.37600e+03	6.45145e-02	4.04667e+02
4413	4.07679e+02	4.41300e+03	6.27984e-02	4.07750e+02
4450	4.10745e+02	4.45000e+03	6.16543e-02	4.10833e+02
4487	4.13811e+02	4.48700e+03	6.08966e-02	4.13917e+02
4524	4.16878e+02	4.52400e+03	6.06402e-02	4.17000e+02
4561	4.19940e+02	4.56100e+03	6.03449e-02	4.20083e+02
4598	4.23015e+02	4.59800e+03	6.03018e-02	4.23167e+02
4635	4.26076e+02	4.63500e+03	6.02515e-02	4.26250e+02
4672	4.29135e+02	4.67200e+03	6.06039e-02	4.29333e+02
4709	4.32205e+02	4.70900e+03	6.00448e-02	4.32417e+02
4746	4.35266e+02	4.74600e+03	6.01058e-02	4.35500e+02
4783	4.38339e+02	4.78300e+03	6.01545e-02	4.38583e+02
4820	4.41401e+02	4.82000e+03	5.93818e-02	4.41667e+02
4857	4.44464e+02	4.85700e+03	6.00367e-02	4.44750e+02
4894	4.47519e+02	4.89400e+03	5.98706e-02	4.47833e+02
4931	4.50592e+02	4.93100e+03	5.98118e-02	4.50917e+02
4968	4.53645e+02	4.96800e+03	5.97308e-02	4.54000e+02
5005	4.56711e+02	5.00500e+03	5.96429e-02	4.57083e+02
5042	4.59771e+02	5.04200e+03	5.98012e-02	4.60167e+02
5079	4.62833e+02	5.07900e+03	5.96721e-02	4.63250e+02
5116	4.65884e+02	5.11600e+03	5.98713e-02	4.66333e+02
5153	4.68955e+02	5.15300e+03	5.98263e-02	4.69417e+02
5190	4.72023e+02	5.19000e+03	5.97403e-02	4.72500e+02
5227	4.75084e+02	5.22700e+03	5.98926e-02	4.75583e+02
5264	4.78140e+02	5.26400e+03	5.99041e-02	4.78667e+02
5301	4.81199e+02	5.30100e+03	5.97886e-02	4.81750e+02
5338	4.84271e+02	5.33800e+03	5.99355e-02	4.84833e+02
5375	4.87315e+02	5.37500e+03	5.98715e-02	4.87917e+02
5412	4.90380e+02	5.41200e+03	5.99318e-02	4.91000e+02
5449	4.93441e+02	5.44900e+03	5.98399e-02	4.94083e+02
5486	4.96499e+02	5.48600e+03	5.99019e-02	4.97167e+02
5523	4.99574e+02	5.52300e+03	5.98650e-02	5.00250e+02
5560	5.02644e+02	5.56000e+03	6.00708e-02	5.03333e+02
5597	5.05700e+02	5.59700e+03	5.98954e-02	5.06417e+02
5634	5.08778e+02	5.63400e+03	5.99844e-02	5.09500e+02
5671	5.11844e+02	5.67100e+03	5.99540e-02	5.12583e+02
5708	5.14931e+02	5.70800e+03	6.01280e-02	5.15667e+02
5745	5.17995e+02	5.74500e+03	6.01330e-02	5.18750e+02
5782	5.21062e+02	5.78200e+03	6.01577e-02	5.21833e+02
5819	5.24139e+02	5.81900e+03	6.01544e-02	5.24917e+02
5856	5.27214e+02	5.85600e+03	6.01613e-02	5.28000e+02
5893	5.30292e+02	5.89300e+03	6.04496e-02	5.31083e+02
5930	5.33373e+02	5.93000e+03	6.02778e-02	5.34167e+02
5967	5.36438e+02	5.96700e+03	6.03675e-02	5.37250e+02
6004	5.39517e+02	6.00400e+03	6.02763e-02	5.40333e+02
6041	5.42591e+02	6.04100e+03	6.02310e-02	5.43417e+02
6078	5.45667e+02	6.07800e+03	6.04168e-02	5.46500e+02
6115	5.48741e+02	6.11500e+03	6.04298e-02	5.49583e+02
6152	5.51816e+02	6.15200e+03	6.03952e-02	5.52667e+02
6189	5.54913e+02	6.18900e+03	6.05076e-02	5.55750e+02
6226	5.57982e+02	6.22600e+03	6.05468e-02	5.58833e+02
6263	5.61073e+02	6.26300e+03	6.03234e-02	5.61917e+02
6300	5.64143e+02	6.30000e+03	6.02765e-02	5.65000e+02
6337	5.67216e+02	6.33700e+03	6.02912e-02	5.68083e+02
6374	5.70313e+02	6.37400e+03	6.05392e-02	5.71167e+02
6411	5.73399e+02	6.41100e+03	6.03439e-02	5.74250e+02
6448	5.76483e+02	6.44800e+03	6.04998e-02	5.77333e+02
6485	5.79568e+02	6.48500e+03	6.05808e-02	5.80417e+02
6522	5.82645e+02	6.52200e+03	6.06449e-02	5.83500e+02
6559	5.85730e+02	6.55900e+03	6.06201e-02	5.86583e+02
6596	5.88798e+02	6.59600e+03	6.05269e-02	5.89667e+02
6633	5.91884e+02	6.63300e+03	6.05549e-02	5.92750e+02
6670	5.94966e+02	6.67000e+03	6.05961e-02	5.95833e+02
6707	5.98040e+02	6.70700e+03	6.05364e-02	5.98917e+02
6744	6.01135e+02	6.74400e+03	6.06069e-02	6.02000e+02
6781	6.04226e+02	6.78100e+03	6.06965e-02	6.05083e+02
6818	6.07303e+02	6.81800e+03	6.07077e-02	6.08167e+02
6855	6.10404e+02	6.85500e+03	6.07387e-02	6.11250e+02
6892	6.13505e+02	6.89200e+03	6.06974e-02	6.14333e+02
6929	6.16587e+02	6.92900e+03	6.06160e-02	6.17417e+02
6966	6.19672e+02	6.96600e+03	6.06145e-02	6.20500e+02
7003	6.22764e+02	7.00300e+03	6.06395e-02	6.23583e+02
7040	6.25844e+02	7.04000e+03	6.06266e-02	6.26667e+02
7077	6.28944e+02	7.07700e+03	6.06705e-02	6.29750e+02
7114	6.32031e+02	7.11400e+03	6.07168e-02	6.32833e+02
7151	6.35117e+02	7.15100e+03	6.06928e-02	6.35917e+02
7188	6.38214e+02	7.18800e+03	6.06021e-02	6.39000e+02
7225	6.41295e+02	7.22500e+03	6.07513e-02	6.42083e+02
7262	6.44399e+02	7.26200e+03	6.06542e-02	6.45167e+02
7299	6.47503e+02	7.29900e+03	6.06100e-02	6.48250e+02
7336	6.50593e+02	7.33600e+03	6.07977e-02	6.51333e+02
7373	6.53678e+02	7.37300e+03	6.04683e-02	6.54417e+02
7410	6.56786e+02	7.41000e+03	6.05865e-02	6.57500e+02
7447	6.59867e+02	7.44700e+03	6.06351e-02	6.60583e+02
7484	6.62963e+02	7.48400e+03	6.05943e-02	6.63667e+02
7521	6.66066e+02	7.52100e+03	6.07476e-02	6.66750e+02
7558	6.69153e+02	7.55800e+03	6.08628e-02	6.69833e+02
7595	6.72247e+02	7.59500e+03	6.08840e-02	6.72917e+02
7632	6.75342e+02	7.63200e+03	6.07385e-02	6.76000e+02
7669	6.78440e+02	7.66900e+03	6.07989e-02	6.79083e+02
7706	6.81541e+02	7.70600e+03	6.07761e-02	6.82167e+02
7743	6.84636e+02	7.74300e+03	6.06836e-02	6.85250e+02
7780	6.87730e+02	7.78000e+03	6.08721e-02	6.88333e+02
7817	6.90837e+02	7.81700e+03	6.10012e-02	6.91417e+02
7854	6.93936e+02	7.85400e+03	6.09320e-02	6.94500e+02
7891	6.97013e+02	7.89100e+03	6.07692e-02	6.97583e+02
7920	6.98496e+02	7.92000e+03	6.07453e-02	7.00000e+02