File: Experiments/TUBS/tga_nonisotherm/tga_dynamic_n2_dyn120_powder_3mg_r1.txt
index	ts	t	weight	tr
[#]	[°C]	[s]	[mg]	[°C]
623	1.18703e+02	6.23000e+02	3.05277e+00	1.36000e+02
625	1.23372e+02	6.25000e+02	3.05295e+00	1.40000e+02
627	1.28033e+02	6.27000e+02	3.05308e+00	1.44000e+02
629	1.32370e+02	6.29000e+02	3.05318e+00	1.48000e+02
631	1.36958e+02	6.31000e+02	3.05308e+00	1.52000e+02
633	1.41500e+02	6.33000e+02	3.05279e+00	1.56000e+02
635	1.45962e+02	6.35000e+02	3.05205e+00	1.60000e+02
637	1.50533e+02	6.37000e+02	3.05081e+00	1.64000e+02
639	1.54996e+02	6.39000e+02	3.04934e+00	1.68000e+02
641	1.59479e+02	6.41000e+02	3.04741e+00	1.72000e+02
643	1.64061e+02	6.43000e+02	3.04534e+00	1.76000e+02
645	1.68612e+02	6.45000e+02	3.04286e+00	1.80000e+02
647	1.73152e+02	6.47000e+02	3.04019e+00	1.84000e+02
649	1.77686e+02	6.49000e+02	3.03689e+00	1.88000e+02
651	1.82165e+02	6.51000e+02	3.03321e+00	1.92000e+02
653	1.86637e+02	6.53000e+02	3.02838e+00	1.96000e+02
655	1.91093e+02	6.55000e+02	3.02302e+00	2.00000e+02
657	1.95505e+02	6.57000e+02	3.01606e+00	2.04000e+02
659	1.99914e+02	6.59000e+02	3.00869e+00	2.08000e+02
661	2.04305e+02	6.61000e+02	2.99985e+00	2.12000e+02
663	2.08677e+02	6.63000e+02	2.99097e+00	2.16000e+02
665	2.13045e+02	6.65000e+02	2.98142e+00	2.20000e+02
667	2.17381e+02	6.67000e+02	2.97228e+00	2.24000e+02
669	2.21714e+02	6.69000e+02	2.96368e+00	2.28000e+02
671	2.25991e+02	6.71000e+02	2.95570e+00	2.32000e+02
673	2.30260e+02	6.73000e+02	2.94915e+00	2.36000e+02
675	2.34535e+02	6.75000e+02	2.94299e+00	2.40000e+02
677	2.38792e+02	6.77000e+02	2.93821e+00	2.44000e+02
679	2.43010e+02	6.79000e+02	2.93346e+00	2.48000e+02
681	2.47232e+02	6.81000e+02	2.92944e+00	2.52000e+02
683	2.51434e+02	6.83000e+02	2.92534e+00	2.56000e+02
685	2.55550e+02	6.85000e+02	2.92144e+00	2.60000e+02
687	2.59670e+02	6.87000e+02	2.91747e+00	2.64000e+02
689	2.63815e+02	6.89000e+02	2.91354e+00	2.68000e+02
691	2.67969e+02	6.91000e+02	2.90961e+00	2.72000e+02
693	2.72129e+02	6.93000e+02	2.90570e+00	2.76000e+02
695	2.76313e+02	6.95000e+02	2.90174e+00	2.80000e+02
697	2.80500e+02	6.97000e+02	2.89766e+00	2.84000e+02
699	2.84708e+02	6.99000e+02	2.89344e+00	2.88000e+02
701	2.88794e+02	7.01000e+02	2.88875e+00	2.92000e+02
703	2.92882e+02	7.03000e+02	2.88369e+00	2.96000e+02
705	2.96966e+02	7.05000e+02	2.87757e+00	3.00000e+02
707	3.01085e+02	7.07000e+02	2.87089e+00	3.04000e+02
709	3.05247e+02	7.09000e+02	2.86250e+00	3.08000e+02
711	3.09354e+02	7.11000e+02	2.85346e+00	3.12000e+02
713	3.13501e+02	7.13000e+02	2.84228e+00	3.16000e+02
715	3.17609e+02	7.15000e+02	2.83054e+00	3.20000e+02
717	3.21683e+02	7.17000e+02	2.81659e+00	3.24000e+02
719	3.25742e+02	7.19000e+02	2.80217e+00	3.28000e+02
721	3.29755e+02	7.21000e+02	2.78560e+00	3.32000e+02
723	3.33733e+02	7.23000e+02	2.76835e+00	3.36000e+02
725	3.37650e+02	7.25000e+02	2.74832e+00	3.40000e+02
727	3.41675e+02	7.27000e+02	2.72689e+00	3.44000e+02
729	3.45669e+02	7.29000e+02	2.70204e+00	3.48000e+02
731	3.49719e+02	7.31000e+02	2.67428e+00	3.52000e+02
733	3.53809e+02	7.33000e+02	2.64038e+00	3.56000e+02
735	3.57811e+02	7.35000e+02	2.60115e+00	3.60000e+02
737	3.61809e+02	7.37000e+02	2.55245e+00	3.64000e+02
739	3.65803e+02	7.39000e+02	2.49775e+00	3.68000e+02
741	3.69739e+02	7.41000e+02	2.43265e+00	3.72000e+02
743	3.73685e+02	7.43000e+02	2.36068e+00	3.76000e+02
745	3.77651e+02	7.45000e+02	2.27739e+00	3.80000e+02
747	3.81613e+02	7.47000e+02	2.18741e+00	3.84000e+02
749	3.85565e+02	7.49000e+02	2.08680e+00	3.88000e+02
751	3.89512e+02	7.51000e+02	1.98000e+00	3.92000e+02
753	3.93491e+02	7.53000e+02	1.86353e+00	3.96000e+02
755	3.97520e+02	7.55000e+02	1.74051e+00	4.00000e+02
757	4.01414e+02	7.57000e+02	1.61193e+00	4.04000e+02
759	4.05337e+02	7.59000e+02	1.47843e+00	4.08000e+02
761	4.09294e+02	7.61000e+02	1.33891e+00	4.12000e+02
763	4.13304e+02	7.63000e+02	1.19677e+00	4.16000e+02
765	4.17296e+02	7.65000e+02	1.05297e+00	4.20000e+02
767	4.21406e+02	7.67000e+02	9.10768e-01	4.24000e+02
769	4.25506e+02	7.69000e+02	7.69011e-01	4.28000e+02
771	4.29588e+02	7.71000e+02	6.33586e-01	4.32000e+02
773	4.33730e+02	7.73000e+02	5.08721e-01	4.36000e+02
775	4.37901e+02	7.75000e+02	3.96847e-01	4.40000e+02
777	4.42027e+02	7.77000e+02	3.02780e-01	4.44000e+02
779	4.46053e+02	7.79000e+02	2.21926e-01	4.48000e+02
781	4.50108e+02	7.81000e+02	1.59456e-01	4.52000e+02
783	4.54133e+02	7.83000e+02	1.09061e-01	4.56000e+02
785	4.58186e+02	7.85000e+02	7.47524e-02	4.60000e+02
787	4.62304e+02	7.87000e+02	4.74467e-02	4.64000e+02
789	4.66182e+02	7.89000e+02	3.01712e-02	4.68000e+02
791	4.69991e+02	7.91000e+02	1.76164e-02	4.72000e+02
793	4.73892e+02	7.93000e+02	1.10984e-02	4.76000e+02
795	4.77997e+02	7.95000e+02	4.61007e-03	4.80000e+02
797	4.82010e+02	7.97000e+02	1.55009e-03	4.84000e+02
799	4.86128e+02	7.99000e+02	-1.49499e-03	4.88000e+02
801	4.90101e+02	8.01000e+02	-2.73144e-03	4.92000e+02
803	4.94010e+02	8.03000e+02	-4.07105e-03	4.96000e+02
805	4.97846e+02	8.05000e+02	-4.61665e-03	5.00000e+02
807	5.01766e+02	8.07000e+02	-5.22425e-03	5.04000e+02
809	5.05675e+02	8.09000e+02	-5.51803e-03	5.08000e+02
811	5.09349e+02	8.11000e+02	-5.85908e-03	5.12000e+02
813	5.13215e+02	8.13000e+02	-6.11204e-03	5.16000e+02
815	5.17079e+02	8.15000e+02	-6.37578e-03	5.20000e+02
817	5.20976e+02	8.17000e+02	-6.60595e-03	5.24000e+02
819	5.24857e+02	8.19000e+02	-6.81541e-03	5.28000e+02
821	5.28799e+02	8.21000e+02	-6.95302e-03	5.32000e+02
823	5.32677e+02	8.23000e+02	-7.05838e-03	5.36000e+02
825	5.36527e+02	8.25000e+02	-7.08647e-03	5.40000e+02
827	5.40433e+02	8.27000e+02	-7.13001e-03	5.44000e+02
829	5.44317e+02	8.29000e+02	-7.17838e-03	5.48000e+02
831	5.48135e+02	8.31000e+02	-7.25516e-03	5.52000e+02
833	5.52019e+02	8.33000e+02	-7.35177e-03	5.56000e+02
835	5.55876e+02	8.35000e+02	-7.43439e-03	5.60000e+02
837	5.59776e+02	8.37000e+02	-7.51747e-03	5.64000e+02
839	5.63478e+02	8.39000e+02	-7.62058e-03	5.68000e+02
841	5.68385e+02	8.41000e+02	-7.76154e-03	5.72000e+02
843	5.72124e+02	8.43000e+02	-7.91309e-03	5.76000e+02
845	5.75872e+02	8.45000e+02	-8.09828e-03	5.80000e+02
847	5.79766e+02	8.47000e+02	-8.26934e-03	5.84000e+02
849	5.83645e+02	8.49000e+02	-8.43866e-03	5.88000e+02
851	5.87541e+02	8.51000e+02	-8.60290e-03	5.92000e+02
853	5.91380e+02	8.53000e+02	-8.75638e-03	5.96000e+02
855	5.95157e+02	8.55000e+02	-8.89710e-03	6.00000e+02
857	5.99003e+02	8.57000e+02	-9.00154e-03	6.04000e+02
859	6.02884e+02	8.59000e+02	-9.08656e-03	6.08000e+02
861	6.06882e+02	8.61000e+02	-9.14702e-03	6.12000e+02
863	6.10864e+02	8.63000e+02	-9.23682e-03	6.16000e+02
865	6.14838e+02	8.65000e+02	-9.35022e-03	6.20000e+02
867	6.18917e+02	8.67000e+02	-9.46241e-03	6.24000e+02
869	6.23250e+02	8.69000e+02	-9.61385e-03	6.28000e+02
871	6.27389e+02	8.71000e+02	-9.78120e-03	6.32000e+02
873	6.31618e+02	8.73000e+02	-9.97425e-03	6.36000e+02
875	6.35696e+02	8.75000e+02	-1.01416e-02	6.40000e+02
877	6.39609e+02	8.77000e+02	-1.02785e-02	6.44000e+02
879	6.43489e+02	8.79000e+02	-1.04004e-02	6.48000e+02
881	6.45064e+02	8.81000e+02	-1.04347e-02	6.52000e+02
883	6.47798e+02	8.83000e+02	-1.04431e-02	6.56000e+02
885	6.50652e+02	8.85000e+02	-1.04065e-02	6.60000e+02
887	6.53152e+02	8.87000e+02	-1.04742e-02	6.64000e+02
889	6.55412e+02	8.89000e+02	-1.06246e-02	6.68000e+02
891	6.57457e+02	8.91000e+02	-1.07939e-02	6.72000e+02
893	6.59323e+02	8.93000e+02	-1.10007e-02	6.76000e+02
895	6.61277e+02	8.95000e+02	-1.11655e-02	6.80000e+02
897	6.62994e+02	8.97000e+02	-1.12682e-02	6.84000e+02
899	6.64637e+02	8.99000e+02	-1.13366e-02	6.88000e+02
901	6.66218e+02	9.01000e+02	-1.13349e-02	6.92000e+02
903	6.67755e+02	9.03000e+02	-1.13207e-02	6.96000e+02
905	6.69211e+02	9.05000e+02	-1.12578e-02	7.00000e+02