File: Experiments/TUBS/tga_nonisotherm/tga_dynamic_n2_dyn30_powder_2mg_r1.txt
index	ts	t	weight	tr
[#]	[°C]	[s]	[mg]	[°C]
683	1.30996e+02	6.83000e+02	2.04828e+00	1.31500e+02
690	1.34501e+02	6.90000e+02	2.04806e+00	1.35000e+02
697	1.38017e+02	6.97000e+02	2.04770e+00	1.38500e+02
704	1.41548e+02	7.04000e+02	2.04724e+00	1.42000e+02
711	1.45064e+02	7.11000e+02	2.04671e+00	1.45500e+02
718	1.48594e+02	7.18000e+02	2.04614e+00	1.49000e+02
725	1.52100e+02	7.25000e+02	2.04537e+00	1.52500e+02
732	1.55630e+02	7.32000e+02	2.04420e+00	1.56000e+02
739	1.59147e+02	7.39000e+02	2.04287e+00	1.59500e+02
746	1.62675e+02	7.46000e+02	2.04161e+00	1.63000e+02
753	1.66203e+02	7.53000e+02	2.04028e+00	1.66500e+02
760	1.69738e+02	7.60000e+02	2.03864e+00	1.70000e+02
767	1.73284e+02	7.67000e+02	2.03683e+00	1.73500e+02
774	1.76820e+02	7.74000e+02	2.03443e+00	1.77000e+02
781	1.80350e+02	7.81000e+02	2.03130e+00	1.80500e+02
788	1.83899e+02	7.88000e+02	2.02721e+00	1.84000e+02
795	1.87432e+02	7.95000e+02	2.02189e+00	1.87500e+02
802	1.90968e+02	8.02000e+02	2.01543e+00	1.91000e+02
809	1.94522e+02	8.09000e+02	2.00831e+00	1.94500e+02
816	1.98073e+02	8.16000e+02	2.00099e+00	1.98000e+02
823	2.01639e+02	8.23000e+02	1.99432e+00	2.01500e+02
830	2.05207e+02	8.30000e+02	1.98887e+00	2.05000e+02
837	2.08774e+02	8.37000e+02	1.98445e+00	2.08500e+02
844	2.12318e+02	8.44000e+02	1.98105e+00	2.12000e+02
851	2.15869e+02	8.51000e+02	1.97867e+00	2.15500e+02
858	2.19423e+02	8.58000e+02	1.97699e+00	2.19000e+02
865	2.22968e+02	8.65000e+02	1.97539e+00	2.22500e+02
872	2.26507e+02	8.72000e+02	1.97380e+00	2.26000e+02
879	2.30072e+02	8.79000e+02	1.97188e+00	2.29500e+02
886	2.33616e+02	8.86000e+02	1.96991e+00	2.33000e+02
893	2.37176e+02	8.93000e+02	1.96798e+00	2.36500e+02
900	2.40719e+02	9.00000e+02	1.96620e+00	2.40000e+02
907	2.44271e+02	9.07000e+02	1.96457e+00	2.43500e+02
914	2.47812e+02	9.14000e+02	1.96282e+00	2.47000e+02
921	2.51371e+02	9.21000e+02	1.96136e+00	2.50500e+02
928	2.54917e+02	9.28000e+02	1.96020e+00	2.54000e+02
935	2.58469e+02	9.35000e+02	1.95902e+00	2.57500e+02
942	2.62022e+02	9.42000e+02	1.95788e+00	2.61000e+02
949	2.65586e+02	9.49000e+02	1.95678e+00	2.64500e+02
956	2.69143e+02	9.56000e+02	1.95560e+00	2.68000e+02
963	2.72719e+02	9.63000e+02	1.95427e+00	2.71500e+02
970	2.76279e+02	9.70000e+02	1.95273e+00	2.75000e+02
977	2.79831e+02	9.77000e+02	1.95078e+00	2.78500e+02
984	2.83356e+02	9.84000e+02	1.94842e+00	2.82000e+02
991	2.86883e+02	9.91000e+02	1.94546e+00	2.85500e+02
998	2.90423e+02	9.98000e+02	1.94180e+00	2.89000e+02
1005	2.93961e+02	1.00500e+03	1.93722e+00	2.92500e+02
1012	2.97451e+02	1.01200e+03	1.93122e+00	2.96000e+02
1019	3.00976e+02	1.01900e+03	1.92403e+00	2.99500e+02
1026	3.04519e+02	1.02600e+03	1.91588e+00	3.03000e+02
1033	3.08046e+02	1.03300e+03	1.90662e+00	3.06500e+02
1040	3.11581e+02	1.04000e+03	1.89642e+00	3.10000e+02
1047	3.15125e+02	1.04700e+03	1.88534e+00	3.13500e+02
1054	3.18550e+02	1.05400e+03	1.87376e+00	3.17000e+02
1061	3.22028e+02	1.06100e+03	1.86194e+00	3.20500e+02
1068	3.25517e+02	1.06800e+03	1.84999e+00	3.24000e+02
1075	3.29033e+02	1.07500e+03	1.83728e+00	3.27500e+02
1082	3.32564e+02	1.08200e+03	1.82241e+00	3.31000e+02
1089	3.36051e+02	1.08900e+03	1.80434e+00	3.34500e+02
1096	3.39526e+02	1.09600e+03	1.78207e+00	3.38000e+02
1103	3.43011e+02	1.10300e+03	1.75459e+00	3.41500e+02
1110	3.46491e+02	1.11000e+03	1.72011e+00	3.45000e+02
1117	3.49958e+02	1.11700e+03	1.67794e+00	3.48500e+02
1124	3.53435e+02	1.12400e+03	1.62699e+00	3.52000e+02
1131	3.56918e+02	1.13100e+03	1.56693e+00	3.55500e+02
1138	3.60394e+02	1.13800e+03	1.49697e+00	3.59000e+02
1145	3.63865e+02	1.14500e+03	1.41752e+00	3.62500e+02
1152	3.67292e+02	1.15200e+03	1.32974e+00	3.66000e+02
1159	3.70769e+02	1.15900e+03	1.23435e+00	3.69500e+02
1166	3.74267e+02	1.16600e+03	1.13090e+00	3.73000e+02
1173	3.77787e+02	1.17300e+03	1.02208e+00	3.76500e+02
1180	3.81296e+02	1.18000e+03	9.06730e-01	3.80000e+02
1187	3.84803e+02	1.18700e+03	7.88259e-01	3.83500e+02
1194	3.88328e+02	1.19400e+03	6.72598e-01	3.87000e+02
1201	3.91876e+02	1.20100e+03	5.61497e-01	3.90500e+02
1208	3.95379e+02	1.20800e+03	4.57751e-01	3.94000e+02
1215	3.98891e+02	1.21500e+03	3.63697e-01	3.97500e+02
1222	4.02392e+02	1.22200e+03	2.82335e-01	4.01000e+02
1229	4.05902e+02	1.22900e+03	2.13891e-01	4.04500e+02
1236	4.09459e+02	1.23600e+03	1.58044e-01	4.08000e+02
1243	4.12959e+02	1.24300e+03	1.13537e-01	4.11500e+02
1250	4.16469e+02	1.25000e+03	7.97359e-02	4.15000e+02
1257	4.19980e+02	1.25700e+03	5.42052e-02	4.18500e+02
1264	4.23527e+02	1.26400e+03	3.56977e-02	4.22000e+02
1271	4.27058e+02	1.27100e+03	2.25751e-02	4.25500e+02
1278	4.30536e+02	1.27800e+03	1.39567e-02	4.29000e+02
1285	4.34015e+02	1.28500e+03	8.20320e-03	4.32500e+02
1292	4.37497e+02	1.29200e+03	4.46325e-03	4.36000e+02
1299	4.40983e+02	1.29900e+03	1.94568e-03	4.39500e+02
1306	4.44489e+02	1.30600e+03	4.16607e-04	4.43000e+02
1313	4.48002e+02	1.31300e+03	-5.67557e-04	4.46500e+02
1320	4.51502e+02	1.32000e+03	-1.12292e-03	4.50000e+02
1327	4.54887e+02	1.32700e+03	-1.51184e-03	4.53500e+02
1334	4.58309e+02	1.33400e+03	-1.81192e-03	4.57000e+02
1341	4.61737e+02	1.34100e+03	-1.86386e-03	4.60500e+02
1348	4.65148e+02	1.34800e+03	-1.87367e-03	4.64000e+02
1355	4.68563e+02	1.35500e+03	-2.06497e-03	4.67500e+02
1362	4.71973e+02	1.36200e+03	-2.16232e-03	4.71000e+02
1369	4.75413e+02	1.36900e+03	-2.20042e-03	4.74500e+02
1376	4.78836e+02	1.37600e+03	-2.34744e-03	4.78000e+02
1383	4.82269e+02	1.38300e+03	-2.46182e-03	4.81500e+02
1390	4.85670e+02	1.39000e+03	-2.48436e-03	4.85000e+02
1397	4.89085e+02	1.39700e+03	-2.46507e-03	4.88500e+02
1404	4.92520e+02	1.40400e+03	-2.58497e-03	4.92000e+02
1411	4.95945e+02	1.41100e+03	-2.78253e-03	4.95500e+02
1418	4.99378e+02	1.41800e+03	-2.71469e-03	4.99000e+02
1425	5.02829e+02	1.42500e+03	-2.77904e-03	5.02500e+02
1432	5.06288e+02	1.43200e+03	-2.80712e-03	5.06000e+02
1439	5.09739e+02	1.43900e+03	-2.66936e-03	5.09500e+02
1446	5.13209e+02	1.44600e+03	-2.80177e-03	5.13000e+02
1453	5.16707e+02	1.45300e+03	-3.22296e-03	5.16500e+02
1460	5.20218e+02	1.46000e+03	-2.79044e-03	5.20000e+02
1467	5.23697e+02	1.46700e+03	-2.76334e-03	5.23500e+02
1474	5.27174e+02	1.47400e+03	-2.76014e-03	5.27000e+02
1481	5.30688e+02	1.48100e+03	-2.85316e-03	5.30500e+02
1488	5.34206e+02	1.48800e+03	-2.95287e-03	5.34000e+02
1495	5.37743e+02	1.49500e+03	-2.98005e-03	5.37500e+02
1502	5.41309e+02	1.50200e+03	-3.09664e-03	5.41000e+02
1509	5.44853e+02	1.50900e+03	-3.04941e-03	5.44500e+02
1516	5.48341e+02	1.51600e+03	-3.02941e-03	5.48000e+02
1523	5.51855e+02	1.52300e+03	-3.03042e-03	5.51500e+02
1530	5.55332e+02	1.53000e+03	-3.14059e-03	5.55000e+02
1537	5.58895e+02	1.53700e+03	-3.37919e-03	5.58500e+02
1544	5.62384e+02	1.54400e+03	-3.10308e-03	5.62000e+02
1551	5.65838e+02	1.55100e+03	-3.26491e-03	5.65500e+02
1558	5.69283e+02	1.55800e+03	-3.27714e-03	5.69000e+02
1565	5.72705e+02	1.56500e+03	-3.42313e-03	5.72500e+02
1572	5.76189e+02	1.57200e+03	-3.47457e-03	5.76000e+02
1579	5.79670e+02	1.57900e+03	-3.52629e-03	5.79500e+02
1586	5.83124e+02	1.58600e+03	-3.59767e-03	5.83000e+02
1593	5.86565e+02	1.59300e+03	-3.57733e-03	5.86500e+02
1600	5.89938e+02	1.60000e+03	-3.49543e-03	5.90000e+02
1607	5.93359e+02	1.60700e+03	-3.56833e-03	5.93500e+02
1614	5.96799e+02	1.61400e+03	-3.58147e-03	5.97000e+02
1621	6.00247e+02	1.62100e+03	-3.67198e-03	6.00500e+02
1628	6.03690e+02	1.62800e+03	-3.86175e-03	6.04000e+02
1635	6.07128e+02	1.63500e+03	-3.81390e-03	6.07500e+02
1642	6.10554e+02	1.64200e+03	-3.76642e-03	6.11000e+02
1649	6.13995e+02	1.64900e+03	-3.83812e-03	6.14500e+02
1656	6.17377e+02	1.65600e+03	-3.76672e-03	6.18000e+02
1663	6.20788e+02	1.66300e+03	-3.78017e-03	6.21500e+02
1670	6.24199e+02	1.67000e+03	-3.82274e-03	6.25000e+02
1677	6.27602e+02	1.67700e+03	-3.89431e-03	6.28500e+02
1684	6.31090e+02	1.68400e+03	-3.89597e-03	6.32000e+02
1691	6.34516e+02	1.69100e+03	-3.93490e-03	6.35500e+02
1698	6.37943e+02	1.69800e+03	-3.89371e-03	6.39000e+02
1705	6.41372e+02	1.70500e+03	-3.85748e-03	6.42500e+02
1712	6.44711e+02	1.71200e+03	-3.95141e-03	6.46000e+02
1719	6.48161e+02	1.71900e+03	-4.18067e-03	6.49500e+02
1726	6.51597e+02	1.72600e+03	-4.39169e-03	6.53000e+02
1733	6.55053e+02	1.73300e+03	-3.69615e-03	6.56500e+02
1740	6.58448e+02	1.74000e+03	-3.71341e-03	6.60000e+02
1747	6.61862e+02	1.74700e+03	-3.99369e-03	6.63500e+02
1754	6.65287e+02	1.75400e+03	-4.13812e-03	6.67000e+02
1761	6.68706e+02	1.76100e+03	-4.01512e-03	6.70500e+02
1768	6.72149e+02	1.76800e+03	-4.12385e-03	6.74000e+02
1775	6.75600e+02	1.77500e+03	-4.13916e-03	6.77500e+02
1782	6.79045e+02	1.78200e+03	-4.17625e-03	6.81000e+02
1789	6.82507e+02	1.78900e+03	-4.37700e-03	6.84500e+02
1796	6.85320e+02	1.79600e+03	-4.16463e-03	6.88000e+02
1803	6.87768e+02	1.80300e+03	-3.82051e-03	6.91500e+02
1810	6.89801e+02	1.81000e+03	-4.10249e-03	6.95000e+02
1817	6.91452e+02	1.81700e+03	-4.17821e-03	6.98500e+02
1820	6.92058e+02	1.82000e+03	-4.15690e-03	7.00000e+02