File: Experiments/TUBS/tga_nonisotherm/tga_dynamic_n2_dyn60_powder_6mg_r1.txt
index	ts	t	weight	tr
[#]	[°C]	[s]	[mg]	[°C]
643	1.30964e+02	6.43000e+02	5.97464e+00	1.33000e+02
646	1.34089e+02	6.46000e+02	5.97444e+00	1.36000e+02
649	1.37227e+02	6.49000e+02	5.97425e+00	1.39000e+02
652	1.40339e+02	6.52000e+02	5.97399e+00	1.42000e+02
655	1.43470e+02	6.55000e+02	5.97361e+00	1.45000e+02
658	1.46584e+02	6.58000e+02	5.97296e+00	1.48000e+02
661	1.49696e+02	6.61000e+02	5.97203e+00	1.51000e+02
664	1.52801e+02	6.64000e+02	5.97083e+00	1.54000e+02
667	1.55902e+02	6.67000e+02	5.96939e+00	1.57000e+02
670	1.58999e+02	6.70000e+02	5.96760e+00	1.60000e+02
673	1.62075e+02	6.73000e+02	5.96553e+00	1.63000e+02
676	1.65169e+02	6.76000e+02	5.96322e+00	1.66000e+02
679	1.68253e+02	6.79000e+02	5.96072e+00	1.69000e+02
682	1.71341e+02	6.82000e+02	5.95790e+00	1.72000e+02
685	1.74425e+02	6.85000e+02	5.95471e+00	1.75000e+02
688	1.77519e+02	6.88000e+02	5.95095e+00	1.78000e+02
691	1.80588e+02	6.91000e+02	5.94660e+00	1.81000e+02
694	1.83662e+02	6.94000e+02	5.94116e+00	1.84000e+02
697	1.86737e+02	6.97000e+02	5.93455e+00	1.87000e+02
700	1.89820e+02	7.00000e+02	5.92650e+00	1.90000e+02
703	1.92878e+02	7.03000e+02	5.91702e+00	1.93000e+02
706	1.95961e+02	7.06000e+02	5.90532e+00	1.96000e+02
709	1.99025e+02	7.09000e+02	5.89187e+00	1.99000e+02
712	2.02099e+02	7.12000e+02	5.87689e+00	2.02000e+02
715	2.05184e+02	7.15000e+02	5.86094e+00	2.05000e+02
718	2.08242e+02	7.18000e+02	5.84409e+00	2.08000e+02
721	2.11379e+02	7.21000e+02	5.82742e+00	2.11000e+02
724	2.14459e+02	7.24000e+02	5.81169e+00	2.14000e+02
727	2.17546e+02	7.27000e+02	5.79727e+00	2.17000e+02
730	2.20637e+02	7.30000e+02	5.78528e+00	2.20000e+02
733	2.23697e+02	7.33000e+02	5.77543e+00	2.23000e+02
736	2.26603e+02	7.36000e+02	5.76745e+00	2.26000e+02
739	2.29624e+02	7.39000e+02	5.76074e+00	2.29000e+02
742	2.32660e+02	7.42000e+02	5.75542e+00	2.32000e+02
745	2.35721e+02	7.45000e+02	5.75061e+00	2.35000e+02
748	2.38795e+02	7.48000e+02	5.74605e+00	2.38000e+02
751	2.41893e+02	7.51000e+02	5.74160e+00	2.41000e+02
754	2.44980e+02	7.54000e+02	5.73718e+00	2.44000e+02
757	2.48066e+02	7.57000e+02	5.73270e+00	2.47000e+02
760	2.51117e+02	7.60000e+02	5.72816e+00	2.50000e+02
763	2.54134e+02	7.63000e+02	5.72361e+00	2.53000e+02
766	2.57187e+02	7.66000e+02	5.71912e+00	2.56000e+02
769	2.60283e+02	7.69000e+02	5.71476e+00	2.59000e+02
772	2.63390e+02	7.72000e+02	5.71055e+00	2.62000e+02
775	2.66465e+02	7.75000e+02	5.70646e+00	2.65000e+02
778	2.69522e+02	7.78000e+02	5.70253e+00	2.68000e+02
781	2.72613e+02	7.81000e+02	5.69866e+00	2.71000e+02
784	2.75705e+02	7.84000e+02	5.69478e+00	2.74000e+02
787	2.78783e+02	7.87000e+02	5.69086e+00	2.77000e+02
790	2.81821e+02	7.90000e+02	5.68676e+00	2.80000e+02
793	2.84864e+02	7.93000e+02	5.68231e+00	2.83000e+02
796	2.87924e+02	7.96000e+02	5.67733e+00	2.86000e+02
799	2.91057e+02	7.99000e+02	5.67170e+00	2.89000e+02
802	2.94196e+02	8.02000e+02	5.66492e+00	2.92000e+02
805	2.97280e+02	8.05000e+02	5.65696e+00	2.95000e+02
808	3.00356e+02	8.08000e+02	5.64762e+00	2.98000e+02
811	3.03384e+02	8.11000e+02	5.63690e+00	3.01000e+02
814	3.06424e+02	8.14000e+02	5.62388e+00	3.04000e+02
817	3.09440e+02	8.17000e+02	5.60887e+00	3.07000e+02
820	3.12443e+02	8.20000e+02	5.59186e+00	3.10000e+02
823	3.15454e+02	8.23000e+02	5.57312e+00	3.13000e+02
826	3.18389e+02	8.26000e+02	5.55199e+00	3.16000e+02
829	3.21253e+02	8.29000e+02	5.52934e+00	3.19000e+02
832	3.24079e+02	8.32000e+02	5.50538e+00	3.22000e+02
835	3.26822e+02	8.35000e+02	5.48044e+00	3.25000e+02
838	3.29586e+02	8.38000e+02	5.45415e+00	3.28000e+02
841	3.32421e+02	8.41000e+02	5.42666e+00	3.31000e+02
844	3.35309e+02	8.44000e+02	5.39731e+00	3.34000e+02
847	3.38318e+02	8.47000e+02	5.36551e+00	3.37000e+02
850	3.41247e+02	8.50000e+02	5.32879e+00	3.40000e+02
853	3.44219e+02	8.53000e+02	5.28683e+00	3.43000e+02
856	3.47188e+02	8.56000e+02	5.23832e+00	3.46000e+02
859	3.50168e+02	8.59000e+02	5.18448e+00	3.49000e+02
862	3.53146e+02	8.62000e+02	5.11920e+00	3.52000e+02
865	3.56109e+02	8.65000e+02	5.04395e+00	3.55000e+02
868	3.59008e+02	8.68000e+02	4.95848e+00	3.58000e+02
871	3.61926e+02	8.71000e+02	4.85922e+00	3.61000e+02
874	3.64868e+02	8.74000e+02	4.74694e+00	3.64000e+02
877	3.67797e+02	8.77000e+02	4.61995e+00	3.67000e+02
880	3.70838e+02	8.80000e+02	4.47786e+00	3.70000e+02
883	3.74220e+02	8.83000e+02	4.32384e+00	3.73000e+02
886	3.77043e+02	8.86000e+02	4.15602e+00	3.76000e+02
889	3.79862e+02	8.89000e+02	3.97383e+00	3.79000e+02
892	3.82796e+02	8.92000e+02	3.78163e+00	3.82000e+02
895	3.85838e+02	8.95000e+02	3.57986e+00	3.85000e+02
898	3.88959e+02	8.98000e+02	3.36599e+00	3.88000e+02
901	3.91837e+02	9.01000e+02	3.14339e+00	3.91000e+02
904	3.94908e+02	9.04000e+02	2.91387e+00	3.94000e+02
907	3.97850e+02	9.07000e+02	2.68172e+00	3.97000e+02
910	4.01136e+02	9.10000e+02	2.44640e+00	4.00000e+02
913	4.04284e+02	9.13000e+02	2.20956e+00	4.03000e+02
916	4.07215e+02	9.16000e+02	1.97105e+00	4.06000e+02
919	4.10086e+02	9.19000e+02	1.73105e+00	4.09000e+02
922	4.13093e+02	9.22000e+02	1.49113e+00	4.12000e+02
925	4.16156e+02	9.25000e+02	1.25407e+00	4.15000e+02
928	4.19215e+02	9.28000e+02	1.02960e+00	4.18000e+02
931	4.22220e+02	9.31000e+02	8.23753e-01	4.21000e+02
934	4.25359e+02	9.34000e+02	6.49025e-01	4.24000e+02
937	4.28510e+02	9.37000e+02	5.02973e-01	4.27000e+02
940	4.31669e+02	9.40000e+02	3.84184e-01	4.30000e+02
943	4.34882e+02	9.43000e+02	2.90181e-01	4.33000e+02
946	4.37964e+02	9.46000e+02	2.18175e-01	4.36000e+02
949	4.41128e+02	9.49000e+02	1.63256e-01	4.39000e+02
952	4.44210e+02	9.52000e+02	1.24522e-01	4.42000e+02
955	4.47285e+02	9.55000e+02	9.44362e-02	4.45000e+02
958	4.50443e+02	9.58000e+02	7.55920e-02	4.48000e+02
961	4.53525e+02	9.61000e+02	6.18273e-02	4.51000e+02
964	4.56391e+02	9.64000e+02	5.20742e-02	4.54000e+02
967	4.59701e+02	9.67000e+02	4.49523e-02	4.57000e+02
970	4.62815e+02	9.70000e+02	4.08014e-02	4.60000e+02
973	4.65730e+02	9.73000e+02	3.79520e-02	4.63000e+02
976	4.68698e+02	9.76000e+02	3.60320e-02	4.66000e+02
979	4.71631e+02	9.79000e+02	3.47024e-02	4.69000e+02
982	4.74476e+02	9.82000e+02	3.39916e-02	4.72000e+02
985	4.77654e+02	9.85000e+02	3.34997e-02	4.75000e+02
988	4.80601e+02	9.88000e+02	3.31383e-02	4.78000e+02
991	4.83524e+02	9.91000e+02	3.28587e-02	4.81000e+02
994	4.86452e+02	9.94000e+02	3.26667e-02	4.84000e+02
997	4.89518e+02	9.97000e+02	3.25183e-02	4.87000e+02
1000	4.92620e+02	1.00000e+03	3.24024e-02	4.90000e+02
1003	4.95757e+02	1.00300e+03	3.23265e-02	4.93000e+02
1006	4.98628e+02	1.00600e+03	3.22985e-02	4.96000e+02
1009	5.01336e+02	1.00900e+03	3.22533e-02	4.99000e+02
1012	5.04185e+02	1.01200e+03	3.21485e-02	5.02000e+02
1015	5.07073e+02	1.01500e+03	3.20315e-02	5.05000e+02
1018	5.09926e+02	1.01800e+03	3.19301e-02	5.08000e+02
1021	5.12831e+02	1.02100e+03	3.18698e-02	5.11000e+02
1024	5.15760e+02	1.02400e+03	3.18145e-02	5.14000e+02
1027	5.18651e+02	1.02700e+03	3.17196e-02	5.17000e+02
1030	5.21551e+02	1.03000e+03	3.15655e-02	5.20000e+02
1033	5.24451e+02	1.03300e+03	3.14204e-02	5.23000e+02
1036	5.27370e+02	1.03600e+03	3.13033e-02	5.26000e+02
1039	5.30237e+02	1.03900e+03	3.11833e-02	5.29000e+02
1042	5.33096e+02	1.04200e+03	3.10446e-02	5.32000e+02
1045	5.35996e+02	1.04500e+03	3.09056e-02	5.35000e+02
1048	5.38859e+02	1.04800e+03	3.07876e-02	5.38000e+02
1051	5.41737e+02	1.05100e+03	3.06797e-02	5.41000e+02
1054	5.44601e+02	1.05400e+03	3.05731e-02	5.44000e+02
1057	5.47479e+02	1.05700e+03	3.04453e-02	5.47000e+02
1060	5.50400e+02	1.06000e+03	3.03219e-02	5.50000e+02
1063	5.53328e+02	1.06300e+03	3.02283e-02	5.53000e+02
1066	5.56205e+02	1.06600e+03	3.01861e-02	5.56000e+02
1069	5.59056e+02	1.06900e+03	3.01483e-02	5.59000e+02
1072	5.61997e+02	1.07200e+03	3.00782e-02	5.62000e+02
1075	5.64941e+02	1.07500e+03	2.99855e-02	5.65000e+02
1078	5.67956e+02	1.07800e+03	2.98896e-02	5.68000e+02
1081	5.71087e+02	1.08100e+03	2.98162e-02	5.71000e+02
1084	5.74043e+02	1.08400e+03	2.97272e-02	5.74000e+02
1087	5.77002e+02	1.08700e+03	2.96215e-02	5.77000e+02
1090	5.79906e+02	1.09000e+03	2.95101e-02	5.80000e+02
1093	5.82887e+02	1.09300e+03	2.94206e-02	5.83000e+02
1096	5.85809e+02	1.09600e+03	2.93329e-02	5.86000e+02
1099	5.88731e+02	1.09900e+03	2.92346e-02	5.89000e+02
1102	5.91688e+02	1.10200e+03	2.91280e-02	5.92000e+02
1105	5.94748e+02	1.10500e+03	2.90372e-02	5.95000e+02
1108	5.97700e+02	1.10800e+03	2.89575e-02	5.98000e+02
1111	6.00617e+02	1.11100e+03	2.88789e-02	6.01000e+02
1114	6.03486e+02	1.11400e+03	2.88108e-02	6.04000e+02
1117	6.06396e+02	1.11700e+03	2.87501e-02	6.07000e+02
1120	6.09276e+02	1.12000e+03	2.86757e-02	6.10000e+02
1123	6.12046e+02	1.12300e+03	2.86001e-02	6.13000e+02
1126	6.14805e+02	1.12600e+03	2.85322e-02	6.16000e+02
1129	6.17687e+02	1.12900e+03	2.84743e-02	6.19000e+02
1132	6.20575e+02	1.13200e+03	2.84127e-02	6.22000e+02
1135	6.23456e+02	1.13500e+03	2.83365e-02	6.25000e+02
1138	6.26397e+02	1.13800e+03	2.82688e-02	6.28000e+02
1141	6.29320e+02	1.14100e+03	2.82376e-02	6.31000e+02
1144	6.32239e+02	1.14400e+03	2.81796e-02	6.34000e+02
1147	6.35188e+02	1.14700e+03	2.80634e-02	6.37000e+02
1150	6.38100e+02	1.15000e+03	2.79111e-02	6.40000e+02
1153	6.41048e+02	1.15300e+03	2.78161e-02	6.43000e+02
1156	6.44001e+02	1.15600e+03	2.77629e-02	6.46000e+02
1159	6.46956e+02	1.15900e+03	2.77253e-02	6.49000e+02
1162	6.49917e+02	1.16200e+03	2.76945e-02	6.52000e+02
1165	6.52863e+02	1.16500e+03	2.76800e-02	6.55000e+02
1168	6.55807e+02	1.16800e+03	2.76787e-02	6.58000e+02
1171	6.58767e+02	1.17100e+03	2.76577e-02	6.61000e+02
1174	6.61743e+02	1.17400e+03	2.76061e-02	6.64000e+02
1177	6.64783e+02	1.17700e+03	2.75650e-02	6.67000e+02
1180	6.67820e+02	1.18000e+03	2.75555e-02	6.70000e+02
1183	6.70808e+02	1.18300e+03	2.75678e-02	6.73000e+02
1186	6.72471e+02	1.18600e+03	2.76231e-02	6.76000e+02
1189	6.74540e+02	1.18900e+03	2.77145e-02	6.79000e+02
1192	6.77006e+02	1.19200e+03	2.77753e-02	6.82000e+02
1195	6.79037e+02	1.19500e+03	2.77702e-02	6.85000e+02
1198	6.80979e+02	1.19800e+03	2.76906e-02	6.88000e+02
1201	6.82726e+02	1.20100e+03	2.76448e-02	6.91000e+02
1204	6.84374e+02	1.20400e+03	2.76568e-02	6.94000e+02
1207	6.85840e+02	1.20700e+03	2.76765e-02	6.97000e+02
1210	6.87322e+02	1.21000e+03	2.76972e-02	7.00000e+02