File: Experiments/TUBS/tga_nonisotherm/tga_dynamic_n2_dyn60_piece_6mg_r2.txt
index	ts	t	weight	tr
[#]	[°C]	[s]	[mg]	[°C]
643	1.30894e+02	6.43000e+02	5.95444e+00	1.33000e+02
646	1.33940e+02	6.46000e+02	5.95444e+00	1.36000e+02
649	1.36981e+02	6.49000e+02	5.95441e+00	1.39000e+02
652	1.40054e+02	6.52000e+02	5.95441e+00	1.42000e+02
655	1.43102e+02	6.55000e+02	5.95443e+00	1.45000e+02
658	1.46133e+02	6.58000e+02	5.95446e+00	1.48000e+02
661	1.49179e+02	6.61000e+02	5.95443e+00	1.51000e+02
664	1.52213e+02	6.64000e+02	5.95436e+00	1.54000e+02
667	1.55243e+02	6.67000e+02	5.95428e+00	1.57000e+02
670	1.58271e+02	6.70000e+02	5.95417e+00	1.60000e+02
673	1.61304e+02	6.73000e+02	5.95404e+00	1.63000e+02
676	1.64330e+02	6.76000e+02	5.95391e+00	1.66000e+02
679	1.67335e+02	6.79000e+02	5.95379e+00	1.69000e+02
682	1.70369e+02	6.82000e+02	5.95368e+00	1.72000e+02
685	1.73390e+02	6.85000e+02	5.95355e+00	1.75000e+02
688	1.76417e+02	6.88000e+02	5.95337e+00	1.78000e+02
691	1.79439e+02	6.91000e+02	5.95316e+00	1.81000e+02
694	1.82458e+02	6.94000e+02	5.95290e+00	1.84000e+02
697	1.85488e+02	6.97000e+02	5.95260e+00	1.87000e+02
700	1.88480e+02	7.00000e+02	5.95227e+00	1.90000e+02
703	1.91505e+02	7.03000e+02	5.95191e+00	1.93000e+02
706	1.94518e+02	7.06000e+02	5.95142e+00	1.96000e+02
709	1.97525e+02	7.09000e+02	5.95078e+00	1.99000e+02
712	2.00527e+02	7.12000e+02	5.95000e+00	2.02000e+02
715	2.03538e+02	7.15000e+02	5.94910e+00	2.05000e+02
718	2.06536e+02	7.18000e+02	5.94798e+00	2.08000e+02
721	2.09514e+02	7.21000e+02	5.94666e+00	2.11000e+02
724	2.12516e+02	7.24000e+02	5.94512e+00	2.14000e+02
727	2.15526e+02	7.27000e+02	5.94345e+00	2.17000e+02
730	2.18530e+02	7.30000e+02	5.94162e+00	2.20000e+02
733	2.21548e+02	7.33000e+02	5.93966e+00	2.23000e+02
736	2.24581e+02	7.36000e+02	5.93760e+00	2.26000e+02
739	2.27607e+02	7.39000e+02	5.93550e+00	2.29000e+02
742	2.30618e+02	7.42000e+02	5.93332e+00	2.32000e+02
745	2.33634e+02	7.45000e+02	5.93108e+00	2.35000e+02
748	2.36615e+02	7.48000e+02	5.92879e+00	2.38000e+02
751	2.39639e+02	7.51000e+02	5.92649e+00	2.41000e+02
754	2.42647e+02	7.54000e+02	5.92418e+00	2.44000e+02
757	2.45689e+02	7.57000e+02	5.92180e+00	2.47000e+02
760	2.48723e+02	7.60000e+02	5.91930e+00	2.50000e+02
763	2.51745e+02	7.63000e+02	5.91671e+00	2.53000e+02
766	2.54753e+02	7.66000e+02	5.91397e+00	2.56000e+02
769	2.57788e+02	7.69000e+02	5.91108e+00	2.59000e+02
772	2.60817e+02	7.72000e+02	5.90810e+00	2.62000e+02
775	2.63841e+02	7.75000e+02	5.90503e+00	2.65000e+02
778	2.66870e+02	7.78000e+02	5.90185e+00	2.68000e+02
781	2.69940e+02	7.81000e+02	5.89855e+00	2.71000e+02
784	2.72977e+02	7.84000e+02	5.89514e+00	2.74000e+02
787	2.75971e+02	7.87000e+02	5.89159e+00	2.77000e+02
790	2.79008e+02	7.90000e+02	5.88780e+00	2.80000e+02
793	2.82091e+02	7.93000e+02	5.88379e+00	2.83000e+02
796	2.85258e+02	7.96000e+02	5.87924e+00	2.86000e+02
799	2.88242e+02	7.99000e+02	5.87374e+00	2.89000e+02
802	2.91317e+02	8.02000e+02	5.86683e+00	2.92000e+02
805	2.94402e+02	8.05000e+02	5.85939e+00	2.95000e+02
808	2.97439e+02	8.08000e+02	5.85202e+00	2.98000e+02
811	3.00484e+02	8.11000e+02	5.84472e+00	3.01000e+02
814	3.03524e+02	8.14000e+02	5.83738e+00	3.04000e+02
817	3.06603e+02	8.17000e+02	5.82967e+00	3.07000e+02
820	3.09683e+02	8.20000e+02	5.82145e+00	3.10000e+02
823	3.12803e+02	8.23000e+02	5.81264e+00	3.13000e+02
826	3.15890e+02	8.26000e+02	5.80263e+00	3.16000e+02
829	3.18974e+02	8.29000e+02	5.79133e+00	3.19000e+02
832	3.22116e+02	8.32000e+02	5.77888e+00	3.22000e+02
835	3.25213e+02	8.35000e+02	5.76570e+00	3.25000e+02
838	3.28248e+02	8.38000e+02	5.75159e+00	3.28000e+02
841	3.31327e+02	8.41000e+02	5.73673e+00	3.31000e+02
844	3.34324e+02	8.44000e+02	5.72095e+00	3.34000e+02
847	3.37334e+02	8.47000e+02	5.70416e+00	3.37000e+02
850	3.40338e+02	8.50000e+02	5.68549e+00	3.40000e+02
853	3.43349e+02	8.53000e+02	5.66381e+00	3.43000e+02
856	3.46337e+02	8.56000e+02	5.63737e+00	3.46000e+02
859	3.49329e+02	8.59000e+02	5.60717e+00	3.49000e+02
862	3.52312e+02	8.62000e+02	5.57179e+00	3.52000e+02
865	3.55298e+02	8.65000e+02	5.53225e+00	3.55000e+02
868	3.58382e+02	8.68000e+02	5.48702e+00	3.58000e+02
871	3.61408e+02	8.71000e+02	5.43347e+00	3.61000e+02
874	3.64425e+02	8.74000e+02	5.36831e+00	3.64000e+02
877	3.67395e+02	8.77000e+02	5.29340e+00	3.67000e+02
880	3.70338e+02	8.80000e+02	5.20384e+00	3.70000e+02
883	3.73328e+02	8.83000e+02	5.09753e+00	3.73000e+02
886	3.76246e+02	8.86000e+02	4.97012e+00	3.76000e+02
889	3.79252e+02	8.89000e+02	4.82467e+00	3.79000e+02
892	3.82314e+02	8.92000e+02	4.66092e+00	3.82000e+02
895	3.85260e+02	8.95000e+02	4.47951e+00	3.85000e+02
898	3.88157e+02	8.98000e+02	4.28462e+00	3.88000e+02
901	3.91059e+02	9.01000e+02	4.07505e+00	3.91000e+02
904	3.94041e+02	9.04000e+02	3.85627e+00	3.94000e+02
907	3.96909e+02	9.07000e+02	3.62871e+00	3.97000e+02
910	3.99929e+02	9.10000e+02	3.39437e+00	4.00000e+02
913	4.02962e+02	9.13000e+02	3.15247e+00	4.03000e+02
916	4.05978e+02	9.16000e+02	2.90516e+00	4.06000e+02
919	4.08892e+02	9.19000e+02	2.65279e+00	4.09000e+02
922	4.11788e+02	9.22000e+02	2.39408e+00	4.12000e+02
925	4.14789e+02	9.25000e+02	2.13152e+00	4.15000e+02
928	4.17874e+02	9.28000e+02	1.86445e+00	4.18000e+02
931	4.20883e+02	9.31000e+02	1.58838e+00	4.21000e+02
934	4.24026e+02	9.34000e+02	1.30036e+00	4.24000e+02
937	4.27230e+02	9.37000e+02	1.01138e+00	4.27000e+02
940	4.30502e+02	9.40000e+02	7.43664e-01	4.30000e+02
943	4.33777e+02	9.43000e+02	5.17772e-01	4.33000e+02
946	4.36954e+02	9.46000e+02	3.45865e-01	4.36000e+02
949	4.40133e+02	9.49000e+02	2.19216e-01	4.39000e+02
952	4.43354e+02	9.52000e+02	1.31435e-01	4.42000e+02
955	4.46523e+02	9.55000e+02	7.35471e-02	4.45000e+02
958	4.49542e+02	9.58000e+02	3.60819e-02	4.48000e+02
961	4.52646e+02	9.61000e+02	1.23748e-02	4.51000e+02
964	4.55738e+02	9.64000e+02	-2.93353e-03	4.54000e+02
967	4.58733e+02	9.67000e+02	-1.46286e-02	4.57000e+02
970	4.61898e+02	9.70000e+02	-2.16462e-02	4.60000e+02
973	4.64974e+02	9.73000e+02	-2.65925e-02	4.63000e+02
976	4.67866e+02	9.76000e+02	-3.00999e-02	4.66000e+02
979	4.70857e+02	9.79000e+02	-3.26489e-02	4.69000e+02
982	4.73877e+02	9.82000e+02	-3.41280e-02	4.72000e+02
985	4.76791e+02	9.85000e+02	-3.51204e-02	4.75000e+02
988	4.79718e+02	9.88000e+02	-3.57752e-02	4.78000e+02
991	4.82663e+02	9.91000e+02	-3.62383e-02	4.81000e+02
994	4.85561e+02	9.94000e+02	-3.65210e-02	4.84000e+02
997	4.88511e+02	9.97000e+02	-3.67377e-02	4.87000e+02
1000	4.91688e+02	1.00000e+03	-3.68918e-02	4.90000e+02
1003	4.94631e+02	1.00300e+03	-3.70245e-02	4.93000e+02
1006	4.97542e+02	1.00600e+03	-3.71397e-02	4.96000e+02
1009	5.00639e+02	1.00900e+03	-3.72449e-02	4.99000e+02
1012	5.03558e+02	1.01200e+03	-3.73480e-02	5.02000e+02
1015	5.06419e+02	1.01500e+03	-3.74585e-02	5.05000e+02
1018	5.09379e+02	1.01800e+03	-3.75759e-02	5.08000e+02
1021	5.11957e+02	1.02100e+03	-3.76696e-02	5.11000e+02
1024	5.15128e+02	1.02400e+03	-3.77300e-02	5.14000e+02
1027	5.17422e+02	1.02700e+03	-3.77960e-02	5.17000e+02
1030	5.20079e+02	1.03000e+03	-3.78748e-02	5.20000e+02
1033	5.23046e+02	1.03300e+03	-3.79447e-02	5.23000e+02
1036	5.26014e+02	1.03600e+03	-3.80111e-02	5.26000e+02
1039	5.28807e+02	1.03900e+03	-3.80752e-02	5.29000e+02
1042	5.31708e+02	1.04200e+03	-3.81357e-02	5.32000e+02
1045	5.34636e+02	1.04500e+03	-3.81693e-02	5.35000e+02
1048	5.37539e+02	1.04800e+03	-3.81950e-02	5.38000e+02
1051	5.40474e+02	1.05100e+03	-3.82408e-02	5.41000e+02
1054	5.43457e+02	1.05400e+03	-3.83221e-02	5.44000e+02
1057	5.46412e+02	1.05700e+03	-3.84182e-02	5.47000e+02
1060	5.49484e+02	1.06000e+03	-3.84883e-02	5.50000e+02
1063	5.52216e+02	1.06300e+03	-3.85010e-02	5.53000e+02
1066	5.55034e+02	1.06600e+03	-3.84460e-02	5.56000e+02
1069	5.57993e+02	1.06900e+03	-3.84154e-02	5.59000e+02
1072	5.60925e+02	1.07200e+03	-3.84342e-02	5.62000e+02
1075	5.63922e+02	1.07500e+03	-3.84776e-02	5.65000e+02
1078	5.66863e+02	1.07800e+03	-3.85201e-02	5.68000e+02
1081	5.69683e+02	1.08100e+03	-3.85344e-02	5.71000e+02
1084	5.72595e+02	1.08400e+03	-3.85489e-02	5.74000e+02
1087	5.75502e+02	1.08700e+03	-3.85743e-02	5.77000e+02
1090	5.78380e+02	1.09000e+03	-3.86084e-02	5.80000e+02
1093	5.81336e+02	1.09300e+03	-3.86372e-02	5.83000e+02
1096	5.84231e+02	1.09600e+03	-3.86778e-02	5.86000e+02
1099	5.87211e+02	1.09900e+03	-3.87126e-02	5.89000e+02
1102	5.90172e+02	1.10200e+03	-3.87471e-02	5.92000e+02
1105	5.93128e+02	1.10500e+03	-3.87880e-02	5.95000e+02
1108	5.96099e+02	1.10800e+03	-3.88106e-02	5.98000e+02
1111	5.98980e+02	1.11100e+03	-3.88187e-02	6.01000e+02
1114	6.01842e+02	1.11400e+03	-3.88305e-02	6.04000e+02
1117	6.04788e+02	1.11700e+03	-3.88563e-02	6.07000e+02
1120	6.07732e+02	1.12000e+03	-3.88533e-02	6.10000e+02
1123	6.10746e+02	1.12300e+03	-3.88525e-02	6.13000e+02
1126	6.13779e+02	1.12600e+03	-3.88543e-02	6.16000e+02
1129	6.16909e+02	1.12900e+03	-3.88462e-02	6.19000e+02
1132	6.20270e+02	1.13200e+03	-3.88382e-02	6.22000e+02
1135	6.24014e+02	1.13500e+03	-3.88393e-02	6.25000e+02
1138	6.27867e+02	1.13800e+03	-3.88410e-02	6.28000e+02
1141	6.30856e+02	1.14100e+03	-3.88358e-02	6.31000e+02
1144	6.33494e+02	1.14400e+03	-3.88434e-02	6.34000e+02
1147	6.36277e+02	1.14700e+03	-3.88697e-02	6.37000e+02
1150	6.39165e+02	1.15000e+03	-3.89205e-02	6.40000e+02
1153	6.42065e+02	1.15300e+03	-3.89613e-02	6.43000e+02
1156	6.44915e+02	1.15600e+03	-3.89785e-02	6.46000e+02
1159	6.47745e+02	1.15900e+03	-3.90022e-02	6.49000e+02
1162	6.50589e+02	1.16200e+03	-3.90301e-02	6.52000e+02
1165	6.53415e+02	1.16500e+03	-3.90423e-02	6.55000e+02
1168	6.56363e+02	1.16800e+03	-3.90355e-02	6.58000e+02
1171	6.59363e+02	1.17100e+03	-3.90068e-02	6.61000e+02
1174	6.62322e+02	1.17400e+03	-3.89622e-02	6.64000e+02
1177	6.65280e+02	1.17700e+03	-3.89434e-02	6.67000e+02
1180	6.68227e+02	1.18000e+03	-3.89758e-02	6.70000e+02
1183	6.71219e+02	1.18300e+03	-3.90393e-02	6.73000e+02
1186	6.72921e+02	1.18600e+03	-3.90811e-02	6.76000e+02
1189	6.74866e+02	1.18900e+03	-3.89803e-02	6.79000e+02
1192	6.76847e+02	1.19200e+03	-3.88016e-02	6.82000e+02
1195	6.78666e+02	1.19500e+03	-3.87003e-02	6.85000e+02
1198	6.80355e+02	1.19800e+03	-3.87437e-02	6.88000e+02
1201	6.81982e+02	1.20100e+03	-3.88153e-02	6.91000e+02
1204	6.83350e+02	1.20400e+03	-3.88374e-02	6.94000e+02
1207	6.84611e+02	1.20700e+03	-3.88221e-02	6.97000e+02
1210	6.85772e+02	1.21000e+03	-3.87679e-02	7.00000e+02