File: Experiments/TUBS/tga_nonisotherm/tga_dynamic_n2_dyn20_powder_2mg_r2.txt
index	ts	t	weight	tr
[#]	[°C]	[s]	[mg]	[°C]
723	1.31170e+02	7.23000e+02	2.02265e+00	1.31000e+02
733	1.34507e+02	7.33000e+02	2.02235e+00	1.34333e+02
743	1.37884e+02	7.43000e+02	2.02199e+00	1.37667e+02
753	1.41245e+02	7.53000e+02	2.02153e+00	1.41000e+02
763	1.44595e+02	7.63000e+02	2.02107e+00	1.44333e+02
773	1.47968e+02	7.73000e+02	2.02030e+00	1.47667e+02
783	1.51343e+02	7.83000e+02	2.01926e+00	1.51000e+02
793	1.54710e+02	7.93000e+02	2.01806e+00	1.54333e+02
803	1.58082e+02	8.03000e+02	2.01690e+00	1.57667e+02
813	1.61453e+02	8.13000e+02	2.01560e+00	1.61000e+02
823	1.64829e+02	8.23000e+02	2.01396e+00	1.64333e+02
833	1.68218e+02	8.33000e+02	2.01230e+00	1.67667e+02
843	1.71606e+02	8.43000e+02	2.01004e+00	1.71000e+02
853	1.74980e+02	8.53000e+02	2.00693e+00	1.74333e+02
863	1.78360e+02	8.63000e+02	2.00287e+00	1.77667e+02
873	1.81740e+02	8.73000e+02	1.99731e+00	1.81000e+02
883	1.85137e+02	8.83000e+02	1.99059e+00	1.84333e+02
893	1.88522e+02	8.93000e+02	1.98320e+00	1.87667e+02
903	1.91906e+02	9.03000e+02	1.97549e+00	1.91000e+02
913	1.95278e+02	9.13000e+02	1.96801e+00	1.94333e+02
923	1.98671e+02	9.23000e+02	1.96149e+00	1.97667e+02
933	2.02024e+02	9.33000e+02	1.95633e+00	2.01000e+02
943	2.05384e+02	9.43000e+02	1.95250e+00	2.04333e+02
953	2.08759e+02	9.53000e+02	1.94988e+00	2.07667e+02
963	2.12133e+02	9.63000e+02	1.94791e+00	2.11000e+02
973	2.15506e+02	9.73000e+02	1.94620e+00	2.14333e+02
983	2.18883e+02	9.83000e+02	1.94473e+00	2.17667e+02
993	2.22271e+02	9.93000e+02	1.94314e+00	2.21000e+02
1003	2.25664e+02	1.00300e+03	1.94157e+00	2.24333e+02
1013	2.29041e+02	1.01300e+03	1.93977e+00	2.27667e+02
1023	2.32433e+02	1.02300e+03	1.93816e+00	2.31000e+02
1033	2.35811e+02	1.03300e+03	1.93670e+00	2.34333e+02
1043	2.39217e+02	1.04300e+03	1.93545e+00	2.37667e+02
1053	2.42609e+02	1.05300e+03	1.93439e+00	2.41000e+02
1063	2.46049e+02	1.06300e+03	1.93342e+00	2.44333e+02
1073	2.49480e+02	1.07300e+03	1.93249e+00	2.47667e+02
1083	2.52885e+02	1.08300e+03	1.93169e+00	2.51000e+02
1093	2.56281e+02	1.09300e+03	1.93076e+00	2.54333e+02
1103	2.59740e+02	1.10300e+03	1.93000e+00	2.57667e+02
1113	2.63180e+02	1.11300e+03	1.92895e+00	2.61000e+02
1123	2.66548e+02	1.12300e+03	1.92783e+00	2.64333e+02
1133	2.69907e+02	1.13300e+03	1.92688e+00	2.67667e+02
1143	2.73218e+02	1.14300e+03	1.92549e+00	2.71000e+02
1153	2.76581e+02	1.15300e+03	1.92391e+00	2.74333e+02
1163	2.79907e+02	1.16300e+03	1.92159e+00	2.77667e+02
1173	2.83204e+02	1.17300e+03	1.91889e+00	2.81000e+02
1183	2.86556e+02	1.18300e+03	1.91556e+00	2.84333e+02
1193	2.89938e+02	1.19300e+03	1.91144e+00	2.87667e+02
1203	2.93273e+02	1.20300e+03	1.90640e+00	2.91000e+02
1213	2.96635e+02	1.21300e+03	1.90019e+00	2.94333e+02
1223	3.00063e+02	1.22300e+03	1.89299e+00	2.97667e+02
1233	3.03593e+02	1.23300e+03	1.88464e+00	3.01000e+02
1243	3.07077e+02	1.24300e+03	1.87553e+00	3.04333e+02
1253	3.10532e+02	1.25300e+03	1.86584e+00	3.07667e+02
1263	3.13885e+02	1.26300e+03	1.85578e+00	3.11000e+02
1273	3.17287e+02	1.27300e+03	1.84567e+00	3.14333e+02
1283	3.20735e+02	1.28300e+03	1.83520e+00	3.17667e+02
1293	3.24307e+02	1.29300e+03	1.82407e+00	3.21000e+02
1303	3.27628e+02	1.30300e+03	1.81162e+00	3.24333e+02
1313	3.31019e+02	1.31300e+03	1.79675e+00	3.27667e+02
1323	3.34429e+02	1.32300e+03	1.77848e+00	3.31000e+02
1333	3.37820e+02	1.33300e+03	1.75583e+00	3.34333e+02
1343	3.41275e+02	1.34300e+03	1.72789e+00	3.37667e+02
1353	3.44718e+02	1.35300e+03	1.69307e+00	3.41000e+02
1363	3.48109e+02	1.36300e+03	1.65089e+00	3.44333e+02
1373	3.51447e+02	1.37300e+03	1.59984e+00	3.47667e+02
1383	3.54746e+02	1.38300e+03	1.53963e+00	3.51000e+02
1393	3.58057e+02	1.39300e+03	1.46950e+00	3.54333e+02
1403	3.61339e+02	1.40300e+03	1.39022e+00	3.57667e+02
1413	3.64612e+02	1.41300e+03	1.30230e+00	3.61000e+02
1423	3.67890e+02	1.42300e+03	1.20679e+00	3.64333e+02
1433	3.71227e+02	1.43300e+03	1.10410e+00	3.67667e+02
1443	3.74603e+02	1.44300e+03	9.97585e-01	3.71000e+02
1453	3.77933e+02	1.45300e+03	8.88567e-01	3.74333e+02
1463	3.81317e+02	1.46300e+03	7.74252e-01	3.77667e+02
1473	3.84732e+02	1.47300e+03	6.62590e-01	3.81000e+02
1483	3.88148e+02	1.48300e+03	5.56951e-01	3.84333e+02
1493	3.91521e+02	1.49300e+03	4.60201e-01	3.87667e+02
1503	3.94860e+02	1.50300e+03	3.73794e-01	3.91000e+02
1513	3.98244e+02	1.51300e+03	2.99245e-01	3.94333e+02
1523	4.01763e+02	1.52300e+03	2.36443e-01	3.97667e+02
1533	4.05093e+02	1.53300e+03	1.85617e-01	4.01000e+02
1543	4.08693e+02	1.54300e+03	1.44901e-01	4.04333e+02
1553	4.12112e+02	1.55300e+03	1.13412e-01	4.07667e+02
1563	4.15384e+02	1.56300e+03	8.93369e-02	4.11000e+02
1573	4.18544e+02	1.57300e+03	7.19730e-02	4.14333e+02
1583	4.21818e+02	1.58300e+03	5.93979e-02	4.17667e+02
1593	4.25185e+02	1.59300e+03	5.05003e-02	4.21000e+02
1603	4.28461e+02	1.60300e+03	4.44545e-02	4.24333e+02
1613	4.31946e+02	1.61300e+03	4.04074e-02	4.27667e+02
1623	4.34981e+02	1.62300e+03	3.77134e-02	4.31000e+02
1633	4.38319e+02	1.63300e+03	3.59879e-02	4.34333e+02
1643	4.41431e+02	1.64300e+03	3.47171e-02	4.37667e+02
1653	4.44537e+02	1.65300e+03	3.41261e-02	4.41000e+02
1663	4.47653e+02	1.66300e+03	3.37955e-02	4.44333e+02
1673	4.50793e+02	1.67300e+03	3.35417e-02	4.47667e+02
1683	4.53925e+02	1.68300e+03	3.34032e-02	4.51000e+02
1693	4.57118e+02	1.69300e+03	3.33063e-02	4.54333e+02
1703	4.60336e+02	1.70300e+03	3.33354e-02	4.57667e+02
1713	4.63608e+02	1.71300e+03	3.32755e-02	4.61000e+02
1723	4.66845e+02	1.72300e+03	3.31662e-02	4.64333e+02
1733	4.70130e+02	1.73300e+03	3.31083e-02	4.67667e+02
1743	4.73086e+02	1.74300e+03	3.31211e-02	4.71000e+02
1753	4.76264e+02	1.75300e+03	3.30534e-02	4.74333e+02
1763	4.79491e+02	1.76300e+03	3.30610e-02	4.77667e+02
1773	4.82761e+02	1.77300e+03	3.29871e-02	4.81000e+02
1783	4.86040e+02	1.78300e+03	3.29351e-02	4.84333e+02
1793	4.89305e+02	1.79300e+03	3.29234e-02	4.87667e+02
1803	4.92549e+02	1.80300e+03	3.28977e-02	4.91000e+02
1813	4.95802e+02	1.81300e+03	3.29119e-02	4.94333e+02
1823	4.99086e+02	1.82300e+03	3.28948e-02	4.97667e+02
1833	5.02355e+02	1.83300e+03	3.27491e-02	5.01000e+02
1843	5.05648e+02	1.84300e+03	3.28005e-02	5.04333e+02
1853	5.08932e+02	1.85300e+03	3.27459e-02	5.07667e+02
1863	5.12197e+02	1.86300e+03	3.26716e-02	5.11000e+02
1873	5.15473e+02	1.87300e+03	3.26431e-02	5.14333e+02
1883	5.18794e+02	1.88300e+03	3.26872e-02	5.17667e+02
1893	5.22164e+02	1.89300e+03	3.25879e-02	5.21000e+02
1903	5.25486e+02	1.90300e+03	3.25909e-02	5.24333e+02
1913	5.28804e+02	1.91300e+03	3.25832e-02	5.27667e+02
1923	5.32145e+02	1.92300e+03	3.24793e-02	5.31000e+02
1933	5.35478e+02	1.93300e+03	3.24520e-02	5.34333e+02
1943	5.38831e+02	1.94300e+03	3.23618e-02	5.37667e+02
1953	5.42151e+02	1.95300e+03	3.23896e-02	5.41000e+02
1963	5.45527e+02	1.96300e+03	3.25101e-02	5.44333e+02
1973	5.48859e+02	1.97300e+03	3.23603e-02	5.47667e+02
1983	5.52172e+02	1.98300e+03	3.25281e-02	5.51000e+02
1993	5.55435e+02	1.99300e+03	3.23969e-02	5.54333e+02
2003	5.58718e+02	2.00300e+03	3.23383e-02	5.57667e+02
2013	5.61974e+02	2.01300e+03	3.24170e-02	5.61000e+02
2023	5.65151e+02	2.02300e+03	3.24559e-02	5.64333e+02
2033	5.68385e+02	2.03300e+03	3.25210e-02	5.67667e+02
2043	5.71613e+02	2.04300e+03	3.24102e-02	5.71000e+02
2053	5.74875e+02	2.05300e+03	3.23322e-02	5.74333e+02
2063	5.78147e+02	2.06300e+03	3.23959e-02	5.77667e+02
2073	5.81433e+02	2.07300e+03	3.24565e-02	5.81000e+02
2083	5.84749e+02	2.08300e+03	3.23126e-02	5.84333e+02
2093	5.88057e+02	2.09300e+03	3.22681e-02	5.87667e+02
2103	5.91356e+02	2.10300e+03	3.23228e-02	5.91000e+02
2113	5.94661e+02	2.11300e+03	3.22354e-02	5.94333e+02
2123	5.97967e+02	2.12300e+03	3.21856e-02	5.97667e+02
2133	6.01259e+02	2.13300e+03	3.22993e-02	6.01000e+02
2143	6.04581e+02	2.14300e+03	3.23024e-02	6.04333e+02
2153	6.07878e+02	2.15300e+03	3.21893e-02	6.07667e+02
2163	6.11195e+02	2.16300e+03	3.22586e-02	6.11000e+02
2173	6.14546e+02	2.17300e+03	3.22647e-02	6.14333e+02
2183	6.17904e+02	2.18300e+03	3.24972e-02	6.17667e+02
2193	6.21238e+02	2.19300e+03	3.22942e-02	6.21000e+02
2203	6.24561e+02	2.20300e+03	3.21933e-02	6.24333e+02
2213	6.27890e+02	2.21300e+03	3.22287e-02	6.27667e+02
2223	6.31170e+02	2.22300e+03	3.22304e-02	6.31000e+02
2233	6.34469e+02	2.23300e+03	3.22772e-02	6.34333e+02
2243	6.37795e+02	2.24300e+03	3.22358e-02	6.37667e+02
2253	6.41151e+02	2.25300e+03	3.22768e-02	6.41000e+02
2263	6.44462e+02	2.26300e+03	3.21605e-02	6.44333e+02
2273	6.47772e+02	2.27300e+03	3.20868e-02	6.47667e+02
2283	6.51067e+02	2.28300e+03	3.20173e-02	6.51000e+02
2293	6.54395e+02	2.29300e+03	3.20299e-02	6.54333e+02
2303	6.57700e+02	2.30300e+03	3.22332e-02	6.57667e+02
2313	6.61041e+02	2.31300e+03	3.23638e-02	6.61000e+02
2323	6.64365e+02	2.32300e+03	3.22811e-02	6.64333e+02
2333	6.67679e+02	2.33300e+03	3.20959e-02	6.67667e+02
2343	6.70988e+02	2.34300e+03	3.19822e-02	6.71000e+02
2353	6.74288e+02	2.35300e+03	3.19686e-02	6.74333e+02
2363	6.77596e+02	2.36300e+03	3.19016e-02	6.77667e+02
2373	6.80910e+02	2.37300e+03	3.18586e-02	6.81000e+02
2383	6.84222e+02	2.38300e+03	3.18066e-02	6.84333e+02
2393	6.87531e+02	2.39300e+03	3.17259e-02	6.87667e+02
2403	6.90867e+02	2.40300e+03	3.17062e-02	6.91000e+02
2413	6.93092e+02	2.41300e+03	3.18801e-02	6.94333e+02
2423	6.94922e+02	2.42300e+03	3.18428e-02	6.97667e+02
2430	6.95932e+02	2.43000e+03	3.18249e-02	7.00000e+02