File: Experiments/TUBS/tga_nonisotherm/tga_dynamic_n2low20_dyn30_piece_3mg_r3.txt
Index	Ts	t	Weight	Tr
[#]	[°C]	[s]	[mg]	[°C]
680	1.30147e+02	6.80000e+02	3.00541	130.0
690	1.35247e+02	6.90000e+02	3.00528	135.0
700	1.40336e+02	7.00000e+02	3.00508	140.0
710	1.45419e+02	7.10000e+02	3.00461	145.0
720	1.50504e+02	7.20000e+02	3.00476	150.0
730	1.55594e+02	7.30000e+02	3.00424	155.0
740	1.60685e+02	7.40000e+02	3.00396	160.0
750	1.65777e+02	7.50000e+02	3.00353	165.0
760	1.70862e+02	7.60000e+02	3.00316	170.0
770	1.75961e+02	7.70000e+02	3.00257	175.0
780	1.81067e+02	7.80000e+02	3.00197	180.0
790	1.86180e+02	7.90000e+02	3.00136	185.0
800	1.91284e+02	8.00000e+02	3.00038	190.0
810	1.96417e+02	8.10000e+02	2.99882	195.0
820	2.01540e+02	8.20000e+02	2.99642	200.0
830	2.06670e+02	8.30000e+02	2.99333	205.0
840	2.11812e+02	8.40000e+02	2.98961	210.0
850	2.16918e+02	8.50000e+02	2.98545	215.0
860	2.22007e+02	8.60000e+02	2.98127	220.0
870	2.27132e+02	8.70000e+02	2.9772	225.0
880	2.32239e+02	8.80000e+02	2.973	230.0
890	2.37349e+02	8.90000e+02	2.9686	235.0
900	2.42435e+02	9.00000e+02	2.96408	240.0
910	2.47518e+02	9.10000e+02	2.95918	245.0
920	2.52628e+02	9.20000e+02	2.95423	250.0
930	2.57762e+02	9.30000e+02	2.94902	255.0
940	2.62845e+02	9.40000e+02	2.94379	260.0
950	2.67922e+02	9.50000e+02	2.93828	265.0
960	2.73040e+02	9.60000e+02	2.93264	270.0
970	2.78122e+02	9.70000e+02	2.92662	275.0
980	2.83264e+02	9.80000e+02	2.92025	280.0
990	2.88429e+02	9.90000e+02	2.91344	285.0
1000	2.93493e+02	1.00000e+03	2.90559	290.0
1010	2.98481e+02	1.01000e+03	2.89649	295.0
1020	3.03468e+02	1.02000e+03	2.8856	300.0
1030	3.08493e+02	1.03000e+03	2.87301	305.0
1040	3.13466e+02	1.04000e+03	2.85803	310.0
1050	3.18364e+02	1.05000e+03	2.84102	315.0
1060	3.23228e+02	1.06000e+03	2.8227	320.0
1070	3.28030e+02	1.07000e+03	2.80311	325.0
1080	3.32785e+02	1.08000e+03	2.78098	330.0
1090	3.37775e+02	1.09000e+03	2.75618	335.0
1100	3.42755e+02	1.10000e+03	2.72722	340.0
1110	3.47713e+02	1.11000e+03	2.68974	345.0
1120	3.52688e+02	1.12000e+03	2.63738	350.0
1130	3.57603e+02	1.13000e+03	2.56318	355.0
1140	3.62502e+02	1.14000e+03	2.45837	360.0
1150	3.67433e+02	1.15000e+03	2.32289	365.0
1160	3.72443e+02	1.16000e+03	2.15143	370.0
1170	3.77642e+02	1.17000e+03	1.94423	375.0
1180	3.82555e+02	1.18000e+03	1.7046	380.0
1190	3.87434e+02	1.19000e+03	1.44732	385.0
1200	3.92397e+02	1.20000e+03	1.18137	390.0
1210	3.97470e+02	1.21000e+03	0.918533	395.0
1220	4.02648e+02	1.22000e+03	0.667319	400.0
1230	4.07847e+02	1.23000e+03	0.447543	405.0
1240	4.12990e+02	1.24000e+03	0.284349	410.0
1250	4.18206e+02	1.25000e+03	0.175228	415.0
1260	4.23309e+02	1.26000e+03	0.108152	420.0
1270	4.28374e+02	1.27000e+03	0.0690409	425.0
1280	4.33397e+02	1.28000e+03	0.0474509	430.0
1290	4.38357e+02	1.29000e+03	0.0347234	435.0
1300	4.43326e+02	1.30000e+03	0.0269747	440.0
1310	4.48248e+02	1.31000e+03	0.021532	445.0
1320	4.53199e+02	1.32000e+03	0.0186529	450.0
1330	4.58145e+02	1.33000e+03	0.0171876	455.0
1340	4.63192e+02	1.34000e+03	0.016719	460.0
1350	4.68259e+02	1.35000e+03	0.0163545	465.0
1360	4.73233e+02	1.36000e+03	0.0158694	470.0
1370	4.78296e+02	1.37000e+03	0.0156679	475.0
1380	4.83362e+02	1.38000e+03	0.0155572	480.0
1390	4.88379e+02	1.39000e+03	0.0155314	485.0
1400	4.93306e+02	1.40000e+03	0.0152111	490.0
1410	4.98051e+02	1.41000e+03	0.0148421	495.0
1420	5.02938e+02	1.42000e+03	0.0148446	500.0
1430	5.07848e+02	1.43000e+03	0.0148275	505.0
1440	5.12803e+02	1.44000e+03	0.0148519	510.0
1450	5.17726e+02	1.45000e+03	0.0146763	515.0
1460	5.22690e+02	1.46000e+03	0.0144988	520.0
1470	5.27646e+02	1.47000e+03	0.0142858	525.0
1480	5.32604e+02	1.48000e+03	0.0143929	530.0
1490	5.37503e+02	1.49000e+03	0.0143131	535.0
1500	5.42488e+02	1.50000e+03	0.0141537	540.0
1510	5.47428e+02	1.51000e+03	0.0141536	545.0
1520	5.52226e+02	1.52000e+03	0.0141358	550.0
1530	5.57168e+02	1.53000e+03	0.0140109	555.0
1540	5.61995e+02	1.54000e+03	0.0139577	560.0
1550	5.66868e+02	1.55000e+03	0.0137125	565.0
1560	5.71792e+02	1.56000e+03	0.0134535	570.0
1570	5.76759e+02	1.57000e+03	0.0132217	575.0
1580	5.81703e+02	1.58000e+03	0.0131832	580.0
1590	5.86778e+02	1.59000e+03	0.0130865	585.0
1600	5.91774e+02	1.60000e+03	0.0129386	590.0
1610	5.96619e+02	1.61000e+03	0.0128115	595.0
1620	6.01510e+02	1.62000e+03	0.0128537	600.0
1630	6.06358e+02	1.63000e+03	0.0128693	605.0
1640	6.11282e+02	1.64000e+03	0.0124402	610.0
1650	6.16267e+02	1.65000e+03	0.0126098	615.0
1660	6.21250e+02	1.66000e+03	0.0127863	620.0
1670	6.26275e+02	1.67000e+03	0.0125232	625.0
1680	6.31401e+02	1.68000e+03	0.0122178	630.0
1690	6.36370e+02	1.69000e+03	0.0122835	635.0
1700	6.41422e+02	1.70000e+03	0.0120138	640.0
1710	6.46421e+02	1.71000e+03	0.0119269	645.0
1720	6.51472e+02	1.72000e+03	0.0118868	650.0
1730	6.56617e+02	1.73000e+03	0.0117355	655.0
1740	6.61772e+02	1.74000e+03	0.0114362	660.0
1750	6.66618e+02	1.75000e+03	0.0112329	665.0
1760	6.71517e+02	1.76000e+03	0.0115865	670.0
1770	6.76517e+02	1.77000e+03	0.0114577	675.0
1780	6.81498e+02	1.78000e+03	0.0114644	680.0
1790	6.86364e+02	1.79000e+03	0.0115567	685.0
1800	6.90091e+02	1.80000e+03	0.0115589	690.0
1810	6.93008e+02	1.81000e+03	0.0112868	695.0
1820	6.95097e+02	1.82000e+03	0.0113378	700.0
1830	6.96608e+02	1.83000e+03	0.011425	700.0
1840	6.97621e+02	1.84000e+03	0.0112398	700.0
1850	6.98376e+02	1.85000e+03	0.0113429	700.0
1860	6.98891e+02	1.86000e+03	0.0112489	700.0
1870	6.99346e+02	1.87000e+03	0.0110225	700.0
1880	6.99701e+02	1.88000e+03	0.0109348	700.0
1890	6.99981e+02	1.89000e+03	0.0110579	700.0
1900	7.00210e+02	1.90000e+03	0.0109703	700.0
1910	7.00404e+02	1.91000e+03	0.0110382	700.0
1920	7.00562e+02	1.92000e+03	0.0110149	700.0
1930	7.00689e+02	1.93000e+03	0.0109315	700.0
1940	7.00790e+02	1.94000e+03	0.0109223	700.0
1950	7.00878e+02	1.95000e+03	0.010821	700.0
1960	7.00953e+02	1.96000e+03	0.0109155	700.0
1970	7.01003e+02	1.97000e+03	0.0108477	700.0
1980	7.01058e+02	1.98000e+03	0.0106899	700.0
1990	7.01093e+02	1.99000e+03	0.0105555	700.0
2000	7.01130e+02	2.00000e+03	0.0105025	700.0
2010	7.01150e+02	2.01000e+03	0.0105682	700.0
2020	7.01171e+02	2.02000e+03	0.0104967	700.0
2030	7.01199e+02	2.03000e+03	0.0104717	700.0
2040	7.01211e+02	2.04000e+03	0.0104233	700.0
2050	7.01228e+02	2.05000e+03	0.0102984	700.0
2060	7.01245e+02	2.06000e+03	0.0101681	700.0
2070	7.01262e+02	2.07000e+03	0.0101592	700.0
2080	7.01272e+02	2.08000e+03	0.00987845	700.0
2090	7.01268e+02	2.09000e+03	0.00995338	700.0
2100	7.01275e+02	2.10000e+03	0.00990123	700.0
2110	7.01287e+02	2.11000e+03	0.00973785	700.0
2120	7.01293e+02	2.12000e+03	0.00977248	700.0
2130	7.01312e+02	2.13000e+03	0.00963749	700.0
2140	7.01313e+02	2.14000e+03	0.00959183	700.0
2150	7.01309e+02	2.15000e+03	0.00936484	700.0
2160	7.01321e+02	2.16000e+03	0.0094034	700.0
2170	7.01320e+02	2.17000e+03	0.00965128	700.0
2180	7.01317e+02	2.18000e+03	0.00955983	700.0
2190	7.01307e+02	2.19000e+03	0.00935713	700.0
2200	7.01313e+02	2.20000e+03	0.0093012	700.0
2210	7.01327e+02	2.21000e+03	0.00936735	700.0
2220	7.01315e+02	2.22000e+03	0.00924453	700.0
2230	7.01322e+02	2.23000e+03	0.00927204	700.0
2240	7.01316e+02	2.24000e+03	0.00912411	700.0
2250	7.01302e+02	2.25000e+03	0.00888618	700.0
2260	7.01307e+02	2.26000e+03	0.00876672	700.0
2270	7.01306e+02	2.27000e+03	0.0088433	700.0
2280	7.01298e+02	2.28000e+03	0.00872605	700.0
2290	7.01294e+02	2.29000e+03	0.00868765	700.0
2300	7.01294e+02	2.30000e+03	0.00874104	700.0
2310	7.01282e+02	2.31000e+03	0.00891107	700.0
2320	7.01289e+02	2.32000e+03	0.0087718	700.0
2330	7.01281e+02	2.33000e+03	0.00880692	700.0
2340	7.01281e+02	2.34000e+03	0.00867128	700.0
2350	7.01271e+02	2.35000e+03	0.00859598	700.0
2360	7.01269e+02	2.36000e+03	0.00862667	700.0
2370	7.01267e+02	2.37000e+03	0.00878342	700.0
2380	7.01258e+02	2.38000e+03	0.008668	700.0
2390	7.01249e+02	2.39000e+03	0.00845856	700.0
2400	7.01250e+02	2.40000e+03	0.00837228	700.0
2410	7.01247e+02	2.41000e+03	0.00854919	700.0
2420	7.01251e+02	2.42000e+03	0.00849981	700.0
2430	7.01250e+02	2.43000e+03	0.00801444	700.0
2440	7.01240e+02	2.44000e+03	0.00849346	700.0
2450	7.01240e+02	2.45000e+03	0.008559	700.0
2460	7.01244e+02	2.46000e+03	0.0084529	700.0
2470	7.01240e+02	2.47000e+03	0.00829222	700.0
2480	7.01235e+02	2.48000e+03	0.00862607	700.0
2490	7.01226e+02	2.49000e+03	0.00854994	700.0
2500	7.01223e+02	2.50000e+03	0.00849466	700.0
2510	7.01223e+02	2.51000e+03	0.00853729	700.0
2520	7.01222e+02	2.52000e+03	0.00857478	700.0
2530	7.01224e+02	2.53000e+03	0.00858479	700.0
2540	7.01222e+02	2.54000e+03	0.00866141	700.0
2550	7.01220e+02	2.55000e+03	0.00848763	700.0
2560	7.01214e+02	2.56000e+03	0.00853403	700.0
2570	7.01209e+02	2.57000e+03	0.0085014	700.0
2580	7.01206e+02	2.58000e+03	0.00848892	700.0
2590	7.01209e+02	2.59000e+03	0.00850883	700.0
2600	7.01208e+02	2.60000e+03	0.0084454	700.0
2610	7.01201e+02	2.61000e+03	0.00851038	700.0
2620	7.01208e+02	2.62000e+03	0.0085298	700.0
2630	7.01199e+02	2.63000e+03	0.00838245	700.0
2640	7.01199e+02	2.64000e+03	0.00855088	700.0
2650	7.01186e+02	2.65000e+03	0.00862333	700.0
2660	7.01190e+02	2.66000e+03	0.00851796	700.0
2670	7.01180e+02	2.67000e+03	0.008367	700.0
2680	7.01188e+02	2.68000e+03	0.00824425	700.0
2690	7.01180e+02	2.69000e+03	0.00850339	700.0
2700	7.01184e+02	2.70000e+03	0.00851429	700.0
2710	7.01181e+02	2.71000e+03	0.00854657	700.0
2720	7.01177e+02	2.72000e+03	0.00840058	700.0