File: Experiments/TUBS/tga_nonisotherm/tga_dynamic_n2_dyn45_piece_3mg_r3.txt
index	ts	t	weight	tr
[#]	[°C]	[s]	[mg]	[°C]
657	1.32269e+02	6.57000e+02	3.04336e+00	1.32752e+02
662	1.36125e+02	6.62000e+02	3.04340e+00	1.36502e+02
667	1.39956e+02	6.67000e+02	3.04355e+00	1.40252e+02
672	1.43767e+02	6.72000e+02	3.04360e+00	1.44002e+02
677	1.47582e+02	6.77000e+02	3.04249e+00	1.47752e+02
682	1.51392e+02	6.82000e+02	3.04170e+00	1.51503e+02
687	1.55215e+02	6.87000e+02	3.04197e+00	1.55253e+02
692	1.59034e+02	6.92000e+02	3.04225e+00	1.59003e+02
697	1.62839e+02	6.97000e+02	3.04202e+00	1.62753e+02
702	1.66651e+02	7.02000e+02	3.04157e+00	1.66503e+02
707	1.70458e+02	7.07000e+02	3.04129e+00	1.70253e+02
712	1.74257e+02	7.12000e+02	3.04098e+00	1.74003e+02
717	1.78075e+02	7.17000e+02	3.04035e+00	1.77754e+02
722	1.81880e+02	7.22000e+02	3.04006e+00	1.81504e+02
727	1.85690e+02	7.27000e+02	3.03993e+00	1.85254e+02
732	1.89501e+02	7.32000e+02	3.03949e+00	1.89004e+02
737	1.93314e+02	7.37000e+02	3.03867e+00	1.92754e+02
742	1.97116e+02	7.42000e+02	3.03731e+00	1.96504e+02
747	2.00933e+02	7.47000e+02	3.03581e+00	2.00255e+02
752	2.04750e+02	7.52000e+02	3.03420e+00	2.04005e+02
757	2.08565e+02	7.57000e+02	3.03229e+00	2.07755e+02
762	2.12386e+02	7.62000e+02	3.03028e+00	2.11505e+02
767	2.16202e+02	7.67000e+02	3.02783e+00	2.15255e+02
772	2.20019e+02	7.72000e+02	3.02481e+00	2.19005e+02
777	2.23851e+02	7.77000e+02	3.02217e+00	2.22755e+02
782	2.27644e+02	7.82000e+02	3.01986e+00	2.26506e+02
787	2.31444e+02	7.87000e+02	3.01728e+00	2.30256e+02
792	2.35314e+02	7.92000e+02	3.01445e+00	2.34006e+02
797	2.39163e+02	7.97000e+02	3.01138e+00	2.37756e+02
802	2.43017e+02	8.02000e+02	3.00830e+00	2.41506e+02
807	2.46859e+02	8.07000e+02	3.00556e+00	2.45256e+02
812	2.50679e+02	8.12000e+02	3.00275e+00	2.49007e+02
817	2.54506e+02	8.17000e+02	2.99929e+00	2.52757e+02
822	2.58339e+02	8.22000e+02	2.99588e+00	2.56507e+02
827	2.62175e+02	8.27000e+02	2.99255e+00	2.60257e+02
832	2.65964e+02	8.32000e+02	2.98883e+00	2.64007e+02
837	2.69688e+02	8.37000e+02	2.98529e+00	2.67757e+02
842	2.73436e+02	8.42000e+02	2.98170e+00	2.71507e+02
847	2.77221e+02	8.47000e+02	2.97818e+00	2.75258e+02
852	2.81023e+02	8.52000e+02	2.97390e+00	2.79008e+02
857	2.84821e+02	8.57000e+02	2.96913e+00	2.82758e+02
862	2.88660e+02	8.62000e+02	2.96504e+00	2.86508e+02
867	2.92542e+02	8.67000e+02	2.96081e+00	2.90258e+02
872	2.96401e+02	8.72000e+02	2.95573e+00	2.94008e+02
877	3.00200e+02	8.77000e+02	2.94993e+00	2.97759e+02
882	3.04062e+02	8.82000e+02	2.94388e+00	3.01509e+02
887	3.07878e+02	8.87000e+02	2.93750e+00	3.05259e+02
892	3.11741e+02	8.92000e+02	2.92994e+00	3.09009e+02
897	3.15568e+02	8.97000e+02	2.92140e+00	3.12759e+02
902	3.19523e+02	9.02000e+02	2.91162e+00	3.16509e+02
907	3.23349e+02	9.07000e+02	2.90111e+00	3.20259e+02
912	3.27096e+02	9.12000e+02	2.89048e+00	3.24010e+02
917	3.30916e+02	9.17000e+02	2.87908e+00	3.27760e+02
922	3.34749e+02	9.22000e+02	2.86718e+00	3.31510e+02
927	3.38548e+02	9.27000e+02	2.85426e+00	3.35260e+02
932	3.42324e+02	9.32000e+02	2.83955e+00	3.39010e+02
937	3.46072e+02	9.37000e+02	2.82257e+00	3.42760e+02
942	3.49828e+02	9.42000e+02	2.80213e+00	3.46510e+02
947	3.53564e+02	9.47000e+02	2.77711e+00	3.50261e+02
952	3.57287e+02	9.52000e+02	2.74477e+00	3.54011e+02
957	3.61180e+02	9.57000e+02	2.70200e+00	3.57761e+02
962	3.64864e+02	9.62000e+02	2.64483e+00	3.61511e+02
967	3.68518e+02	9.67000e+02	2.56906e+00	3.65261e+02
972	3.72213e+02	9.72000e+02	2.47482e+00	3.69011e+02
977	3.75917e+02	9.77000e+02	2.35879e+00	3.72762e+02
982	3.79590e+02	9.82000e+02	2.22472e+00	3.76512e+02
987	3.83294e+02	9.87000e+02	2.06699e+00	3.80262e+02
992	3.87157e+02	9.92000e+02	1.89223e+00	3.84012e+02
997	3.90803e+02	9.97000e+02	1.70707e+00	3.87762e+02
1002	3.94517e+02	1.00200e+03	1.51518e+00	3.91512e+02
1007	3.98482e+02	1.00700e+03	1.32019e+00	3.95262e+02
1012	4.02196e+02	1.01200e+03	1.12529e+00	3.99013e+02
1017	4.05992e+02	1.01700e+03	9.34531e-01	4.02763e+02
1022	4.09822e+02	1.02200e+03	7.49158e-01	4.06513e+02
1027	4.13728e+02	1.02700e+03	5.71910e-01	4.10263e+02
1032	4.17776e+02	1.03200e+03	4.13258e-01	4.14013e+02
1037	4.21543e+02	1.03700e+03	2.86555e-01	4.17763e+02
1042	4.25292e+02	1.04200e+03	1.91118e-01	4.21514e+02
1047	4.29018e+02	1.04700e+03	1.23499e-01	4.25264e+02
1052	4.32945e+02	1.05200e+03	7.73276e-02	4.29014e+02
1057	4.36723e+02	1.05700e+03	4.61365e-02	4.32764e+02
1062	4.40624e+02	1.06200e+03	2.59782e-02	4.36514e+02
1067	4.44671e+02	1.06700e+03	1.35423e-02	4.40264e+02
1072	4.48829e+02	1.07200e+03	6.31480e-03	4.44014e+02
1077	4.52550e+02	1.07700e+03	1.44916e-03	4.47765e+02
1082	4.56573e+02	1.08200e+03	-1.73257e-03	4.51515e+02
1087	4.60330e+02	1.08700e+03	-3.95223e-03	4.55265e+02
1092	4.63855e+02	1.09200e+03	-5.43915e-03	4.59015e+02
1097	4.67160e+02	1.09700e+03	-6.30374e-03	4.62765e+02
1102	4.70777e+02	1.10200e+03	-6.69948e-03	4.66515e+02
1107	4.74182e+02	1.10700e+03	-6.84345e-03	4.70266e+02
1112	4.77893e+02	1.11200e+03	-6.91864e-03	4.74016e+02
1117	4.81611e+02	1.11700e+03	-6.99171e-03	4.77766e+02
1122	4.85052e+02	1.12200e+03	-7.12886e-03	4.81516e+02
1127	4.88655e+02	1.12700e+03	-7.33084e-03	4.85266e+02
1132	4.92370e+02	1.13200e+03	-7.63923e-03	4.89016e+02
1137	4.96214e+02	1.13700e+03	-7.76191e-03	4.92766e+02
1142	4.99771e+02	1.14200e+03	-7.62515e-03	4.96517e+02
1147	5.03484e+02	1.14700e+03	-7.54693e-03	5.00267e+02
1152	5.07257e+02	1.15200e+03	-7.65013e-03	5.04017e+02
1157	5.10996e+02	1.15700e+03	-7.49454e-03	5.07767e+02
1162	5.14841e+02	1.16200e+03	-7.45072e-03	5.11517e+02
1167	5.18994e+02	1.16700e+03	-7.80569e-03	5.15267e+02
1172	5.21933e+02	1.17200e+03	-8.11575e-03	5.19018e+02
1177	5.25304e+02	1.17700e+03	-8.24119e-03	5.22768e+02
1182	5.28878e+02	1.18200e+03	-8.21656e-03	5.26518e+02
1187	5.32428e+02	1.18700e+03	-8.17397e-03	5.30268e+02
1192	5.36036e+02	1.19200e+03	-8.31195e-03	5.34018e+02
1197	5.39677e+02	1.19700e+03	-8.02809e-03	5.37768e+02
1202	5.43297e+02	1.20200e+03	-8.15686e-03	5.41518e+02
1207	5.46936e+02	1.20700e+03	-8.14786e-03	5.45269e+02
1212	5.50708e+02	1.21200e+03	-7.93884e-03	5.49019e+02
1217	5.54684e+02	1.21700e+03	-8.07167e-03	5.52769e+02
1222	5.57875e+02	1.22200e+03	-8.47061e-03	5.56519e+02
1227	5.61393e+02	1.22700e+03	-8.55575e-03	5.60269e+02
1232	5.64968e+02	1.23200e+03	-8.26346e-03	5.64019e+02
1237	5.68527e+02	1.23700e+03	-8.05638e-03	5.67770e+02
1242	5.72145e+02	1.24200e+03	-8.22528e-03	5.71520e+02
1247	5.76079e+02	1.24700e+03	-8.55178e-03	5.75270e+02
1252	5.79885e+02	1.25200e+03	-8.52409e-03	5.79020e+02
1257	5.83544e+02	1.25700e+03	-8.34790e-03	5.82770e+02
1262	5.87431e+02	1.26200e+03	-8.37655e-03	5.86520e+02
1267	5.91576e+02	1.26700e+03	-8.01588e-03	5.90270e+02
1272	5.96284e+02	1.27200e+03	-7.87661e-03	5.94021e+02
1277	5.99708e+02	1.27700e+03	-8.34912e-03	5.97771e+02
1282	6.03354e+02	1.28200e+03	-8.97949e-03	6.01521e+02
1287	6.06966e+02	1.28700e+03	-9.24493e-03	6.05271e+02
1292	6.10881e+02	1.29200e+03	-8.15421e-03	6.09021e+02
1297	6.15396e+02	1.29700e+03	-7.80723e-03	6.12771e+02
1302	6.17713e+02	1.30200e+03	-8.22640e-03	6.16522e+02
1307	6.21162e+02	1.30700e+03	-7.98615e-03	6.20272e+02
1312	6.24704e+02	1.31200e+03	-8.15112e-03	6.24022e+02
1317	6.28306e+02	1.31700e+03	-8.41692e-03	6.27772e+02
1322	6.31955e+02	1.32200e+03	-8.52078e-03	6.31522e+02
1327	6.35569e+02	1.32700e+03	-8.58821e-03	6.35272e+02
1332	6.39164e+02	1.33200e+03	-9.05694e-03	6.39022e+02
1337	6.42803e+02	1.33700e+03	-9.31048e-03	6.42773e+02
1342	6.46495e+02	1.34200e+03	-8.60712e-03	6.46523e+02
1347	6.50177e+02	1.34700e+03	-8.20220e-03	6.50273e+02
1352	6.53911e+02	1.35200e+03	-8.89846e-03	6.54023e+02
1357	6.57712e+02	1.35700e+03	-9.12466e-03	6.57773e+02
1362	6.61420e+02	1.36200e+03	-8.65613e-03	6.61523e+02
1367	6.65119e+02	1.36700e+03	-8.62195e-03	6.65274e+02
1372	6.68790e+02	1.37200e+03	-8.86262e-03	6.69024e+02
1377	6.72491e+02	1.37700e+03	-8.95504e-03	6.72774e+02
1382	6.76188e+02	1.38200e+03	-8.86802e-03	6.76524e+02
1387	6.79908e+02	1.38700e+03	-8.74128e-03	6.80274e+02
1392	6.82016e+02	1.39200e+03	-8.78325e-03	6.84024e+02
1397	6.84554e+02	1.39700e+03	-8.84599e-03	6.87774e+02
1402	6.86743e+02	1.40200e+03	-8.97084e-03	6.91525e+02
1407	6.88620e+02	1.40700e+03	-8.64976e-03	6.95275e+02
1412	6.90202e+02	1.41200e+03	-8.60064e-03	6.99025e+02
1414	6.90774e+02	1.41400e+03	-8.63050e-03	7.00000e+02