File: Experiments/TUBS/tga_nonisotherm/tga_dynamic_n2high60_dyn30_piece_3mg_r3.txt
Index	Ts	t	Weight	Tr
[#]	[°C]	[s]	[mg]	[°C]
683	1.30484e+02	6.83000e+02	3.04453	131.5
693	1.35486e+02	6.93000e+02	3.04447	136.5
703	1.40482e+02	7.03000e+02	3.04437	141.5
713	1.45493e+02	7.13000e+02	3.04418	146.5
723	1.50511e+02	7.23000e+02	3.04393	151.5
733	1.55531e+02	7.33000e+02	3.04361	156.5
743	1.60547e+02	7.43000e+02	3.0432	161.5
753	1.65581e+02	7.53000e+02	3.04297	166.5
763	1.70637e+02	7.63000e+02	3.04229	171.5
773	1.75676e+02	7.73000e+02	3.04182	176.5
783	1.80737e+02	7.83000e+02	3.04114	181.5
793	1.85782e+02	7.93000e+02	3.03988	186.5
803	1.90848e+02	8.03000e+02	3.03835	191.5
813	1.95919e+02	8.13000e+02	3.03633	196.5
823	2.00987e+02	8.23000e+02	3.0335	201.5
833	2.06067e+02	8.33000e+02	3.02982	206.5
843	2.11111e+02	8.43000e+02	3.02594	211.5
853	2.16147e+02	8.53000e+02	3.02203	216.5
863	2.21194e+02	8.63000e+02	3.01787	221.5
873	2.26255e+02	8.73000e+02	3.0136	226.5
883	2.31308e+02	8.83000e+02	3.00903	231.5
893	2.36383e+02	8.93000e+02	3.00432	236.5
903	2.41443e+02	9.03000e+02	2.99938	241.5
913	2.46525e+02	9.13000e+02	2.99441	246.5
923	2.51613e+02	9.23000e+02	2.98954	251.5
933	2.56733e+02	9.33000e+02	2.98431	256.5
943	2.61866e+02	9.43000e+02	2.97857	261.5
953	2.66989e+02	9.53000e+02	2.97305	266.5
963	2.72382e+02	9.63000e+02	2.96769	271.5
973	2.77499e+02	9.73000e+02	2.96197	276.5
983	2.82729e+02	9.83000e+02	2.95601	281.5
993	2.87880e+02	9.93000e+02	2.94942	286.5
1003	2.93088e+02	1.00300e+03	2.9424	291.5
1013	2.98195e+02	1.01300e+03	2.93437	296.5
1023	3.03284e+02	1.02300e+03	2.92483	301.5
1033	3.08343e+02	1.03300e+03	2.91364	306.5
1043	3.13126e+02	1.04300e+03	2.90081	311.5
1053	3.18394e+02	1.05300e+03	2.88607	316.5
1063	3.23416e+02	1.06300e+03	2.87058	321.5
1073	3.28467e+02	1.07300e+03	2.85415	326.5
1083	3.33534e+02	1.08300e+03	2.83593	331.5
1093	3.38567e+02	1.09300e+03	2.81428	336.5
1103	3.43499e+02	1.10300e+03	2.78654	341.5
1113	3.48518e+02	1.11300e+03	2.74956	346.5
1123	3.53503e+02	1.12300e+03	2.69865	351.5
1133	3.58477e+02	1.13300e+03	2.62732	356.5
1143	3.63324e+02	1.14300e+03	2.52451	361.5
1153	3.68298e+02	1.15300e+03	2.37219	366.5
1163	3.73055e+02	1.16300e+03	2.1811	371.5
1173	3.77835e+02	1.17300e+03	1.95282	376.5
1183	3.82660e+02	1.18300e+03	1.69653	381.5
1193	3.87541e+02	1.19300e+03	1.43212	386.5
1203	3.92583e+02	1.20300e+03	1.17407	391.5
1213	3.97512e+02	1.21300e+03	0.921003	396.5
1223	4.02568e+02	1.22300e+03	0.665504	401.5
1233	4.07721e+02	1.23300e+03	0.434938	406.5
1243	4.12811e+02	1.24300e+03	0.264022	411.5
1253	4.17866e+02	1.25300e+03	0.153956	416.5
1263	4.23036e+02	1.26300e+03	0.0865552	421.5
1273	4.27989e+02	1.27300e+03	0.0494657	426.5
1283	4.32986e+02	1.28300e+03	0.0293784	431.5
1293	4.37948e+02	1.29300e+03	0.0189357	436.5
1303	4.42949e+02	1.30300e+03	0.0130005	441.5
1313	4.47843e+02	1.31300e+03	0.00943409	446.5
1323	4.52808e+02	1.32300e+03	0.00729641	451.5
1333	4.57606e+02	1.33300e+03	0.00619569	456.5
1343	4.62420e+02	1.34300e+03	0.00599522	461.5
1353	4.67282e+02	1.35300e+03	0.00561865	466.5
1363	4.72083e+02	1.36300e+03	0.00577845	471.5
1373	4.76983e+02	1.37300e+03	0.00566836	476.5
1383	4.81890e+02	1.38300e+03	0.00542892	481.5
1393	4.86857e+02	1.39300e+03	0.00539664	486.5
1403	4.91842e+02	1.40300e+03	0.00513496	491.5
1413	4.96793e+02	1.41300e+03	0.00518111	496.5
1423	5.01749e+02	1.42300e+03	0.00511645	501.5
1433	5.06838e+02	1.43300e+03	0.00501645	506.5
1443	5.12047e+02	1.44300e+03	0.00492499	511.5
1453	5.17398e+02	1.45300e+03	0.00507816	516.5
1463	5.22466e+02	1.46300e+03	0.00496342	521.5
1473	5.26663e+02	1.47300e+03	0.00502762	526.5
1483	5.31334e+02	1.48300e+03	0.00505435	531.5
1493	5.36213e+02	1.49300e+03	0.00507159	536.5
1503	5.41054e+02	1.50300e+03	0.00489551	541.5
1513	5.45950e+02	1.51300e+03	0.00490967	546.5
1523	5.50865e+02	1.52300e+03	0.0047831	551.5
1533	5.55736e+02	1.53300e+03	0.00482903	556.5
1543	5.60572e+02	1.54300e+03	0.00506748	561.5
1553	5.65426e+02	1.55300e+03	0.00493235	566.5
1563	5.70289e+02	1.56300e+03	0.00495419	571.5
1573	5.75197e+02	1.57300e+03	0.00498491	576.5
1583	5.80225e+02	1.58300e+03	0.00486112	581.5
1593	5.85289e+02	1.59300e+03	0.00483393	586.5
1603	5.90310e+02	1.60300e+03	0.0050229	591.5
1613	5.95233e+02	1.61300e+03	0.00513823	596.5
1623	6.00172e+02	1.62300e+03	0.00526321	601.5
1633	6.05118e+02	1.63300e+03	0.00504797	606.5
1643	6.10271e+02	1.64300e+03	0.00497085	611.5
1653	6.15266e+02	1.65300e+03	0.0049306	616.5
1663	6.20289e+02	1.66300e+03	0.00496139	621.5
1673	6.25412e+02	1.67300e+03	0.00513795	626.5
1683	6.30436e+02	1.68300e+03	0.00496376	631.5
1693	6.35473e+02	1.69300e+03	0.00498689	636.5
1703	6.40200e+02	1.70300e+03	0.00515973	641.5
1713	6.45022e+02	1.71300e+03	0.00521135	646.5
1723	6.49955e+02	1.72300e+03	0.00517016	651.5
1733	6.54890e+02	1.73300e+03	0.00497597	656.5
1743	6.59836e+02	1.74300e+03	0.00490843	661.5
1753	6.64692e+02	1.75300e+03	0.00503356	666.5
1763	6.69610e+02	1.76300e+03	0.00510009	671.5
1773	6.74577e+02	1.77300e+03	0.00505437	676.5
1783	6.79561e+02	1.78300e+03	0.00491161	681.5
1793	6.84618e+02	1.79300e+03	0.00497777	686.5
1803	6.87955e+02	1.80300e+03	0.00528737	691.5
1813	6.90793e+02	1.81300e+03	0.00529929	696.5
1823	6.92870e+02	1.82300e+03	0.00494523	700.0
1833	6.94307e+02	1.83300e+03	0.00486452	700.0
1843	6.95424e+02	1.84300e+03	0.00488183	700.0
1853	6.96264e+02	1.85300e+03	0.00507836	700.0
1863	6.96933e+02	1.86300e+03	0.00496507	700.0
1873	6.97472e+02	1.87300e+03	0.00478767	700.0
1883	6.97852e+02	1.88300e+03	0.00480397	700.0
1893	6.98157e+02	1.89300e+03	0.0050005	700.0
1903	6.98388e+02	1.90300e+03	0.00474457	700.0
1913	6.98554e+02	1.91300e+03	0.00488386	700.0
1923	6.98695e+02	1.92300e+03	0.00482529	700.0
1933	6.98810e+02	1.93300e+03	0.00510493	700.0
1943	6.98892e+02	1.94300e+03	0.00515556	700.0
1953	6.98951e+02	1.95300e+03	0.00491735	700.0
1963	6.99007e+02	1.96300e+03	0.00481607	700.0
1973	6.99042e+02	1.97300e+03	0.00489556	700.0
1983	6.99067e+02	1.98300e+03	0.00475413	700.0
1993	6.99097e+02	1.99300e+03	0.00473637	700.0
2003	6.99111e+02	2.00300e+03	0.00483731	700.0
2013	6.99125e+02	2.01300e+03	0.00476208	700.0
2023	6.99139e+02	2.02300e+03	0.00489189	700.0
2033	6.99143e+02	2.03300e+03	0.00488885	700.0
2043	6.99128e+02	2.04300e+03	0.00490801	700.0
2053	6.99129e+02	2.05300e+03	0.00486557	700.0
2063	6.99124e+02	2.06300e+03	0.00464385	700.0
2073	6.99107e+02	2.07300e+03	0.00468291	700.0
2083	6.99100e+02	2.08300e+03	0.00472572	700.0
2093	6.99086e+02	2.09300e+03	0.00459905	700.0
2103	6.99075e+02	2.10300e+03	0.00454427	700.0
2113	6.99072e+02	2.11300e+03	0.00480374	700.0
2123	6.99052e+02	2.12300e+03	0.00476977	700.0
2133	6.99050e+02	2.13300e+03	0.0046131	700.0
2143	6.99035e+02	2.14300e+03	0.00453568	700.0
2153	6.99030e+02	2.15300e+03	0.00462019	700.0
2163	6.99025e+02	2.16300e+03	0.00474755	700.0
2173	6.99016e+02	2.17300e+03	0.0048562	700.0
2183	6.99011e+02	2.18300e+03	0.00464238	700.0
2193	6.98997e+02	2.19300e+03	0.00458097	700.0
2203	6.98984e+02	2.20300e+03	0.00467968	700.0
2213	6.98982e+02	2.21300e+03	0.00466915	700.0
2223	6.98982e+02	2.22300e+03	0.00454208	700.0
2233	6.98960e+02	2.23300e+03	0.00446289	700.0
2243	6.98950e+02	2.24300e+03	0.00438928	700.0
2253	6.98937e+02	2.25300e+03	0.00441053	700.0
2263	6.98932e+02	2.26300e+03	0.00442445	700.0
2273	6.98928e+02	2.27300e+03	0.00448264	700.0
2283	6.98925e+02	2.28300e+03	0.00444432	700.0
2293	6.98905e+02	2.29300e+03	0.00445389	700.0
2303	6.98900e+02	2.30300e+03	0.00432146	700.0
2313	6.98902e+02	2.31300e+03	0.00437009	700.0
2323	6.98888e+02	2.32300e+03	0.00443997	700.0
2333	6.98887e+02	2.33300e+03	0.00421242	700.0
2343	6.98878e+02	2.34300e+03	0.00421854	700.0
2353	6.98866e+02	2.35300e+03	0.0042797	700.0
2363	6.98865e+02	2.36300e+03	0.00426609	700.0
2373	6.98859e+02	2.37300e+03	0.00407064	700.0
2383	6.98857e+02	2.38300e+03	0.00408623	700.0
2393	6.98855e+02	2.39300e+03	0.00405924	700.0
2403	6.98843e+02	2.40300e+03	0.00409018	700.0
2413	6.98851e+02	2.41300e+03	0.00385855	700.0
2423	6.98831e+02	2.42300e+03	0.0040774	700.0
2433	6.98837e+02	2.43300e+03	0.00407457	700.0
2443	6.98840e+02	2.44300e+03	0.0040543	700.0
2453	6.98826e+02	2.45300e+03	0.00418167	700.0
2463	6.98819e+02	2.46300e+03	0.00421259	700.0
2473	6.98816e+02	2.47300e+03	0.00413407	700.0
2483	6.98819e+02	2.48300e+03	0.00408664	700.0
2493	6.98823e+02	2.49300e+03	0.00415237	700.0
2503	6.98816e+02	2.50300e+03	0.00410902	700.0
2513	6.98808e+02	2.51300e+03	0.00395835	700.0
2523	6.98806e+02	2.52300e+03	0.00411216	700.0
2533	6.98813e+02	2.53300e+03	0.00418793	700.0
2543	6.98803e+02	2.54300e+03	0.00397317	700.0
2553	6.98805e+02	2.55300e+03	0.00403455	700.0
2563	6.98806e+02	2.56300e+03	0.00403808	700.0
2573	6.98792e+02	2.57300e+03	0.00409587	700.0
2583	6.98803e+02	2.58300e+03	0.00425056	700.0
2593	6.98794e+02	2.59300e+03	0.00414547	700.0
2603	6.98792e+02	2.60300e+03	0.0039239	700.0
2613	6.98795e+02	2.61300e+03	0.00394188	700.0
2623	6.98785e+02	2.62300e+03	0.00402267	700.0
2633	6.98784e+02	2.63300e+03	0.00406489	700.0
2643	6.98787e+02	2.64300e+03	0.00411279	700.0
2653	6.98785e+02	2.65300e+03	0.00389717	700.0
2663	6.98793e+02	2.66300e+03	0.00396804	700.0
2673	6.98790e+02	2.67300e+03	0.00393436	700.0
2683	6.98792e+02	2.68300e+03	0.00402803	700.0
2693	6.98780e+02	2.69300e+03	0.00410238	700.0
2703	6.98782e+02	2.70300e+03	0.00411496	700.0
2713	6.98778e+02	2.71300e+03	0.00391386	700.0
2720	6.98783e+02	2.72000e+03	0.00379499	700.0