File: Experiments/TUBS/tga_nonisotherm/tga_dynamic_n2high60_dyn30_powder_3mg_r1.txt
Index	Ts	t	Weight	Tr
[#]	[°C]	[s]	[mg]	[°C]
681	1.30250e+02	6.81000e+02	2.99978	130.5
691	1.35314e+02	6.91000e+02	2.99918	135.5
701	1.40394e+02	7.01000e+02	2.99882	140.5
711	1.45477e+02	7.11000e+02	2.99779	145.5
721	1.50534e+02	7.21000e+02	2.99645	150.5
731	1.55613e+02	7.31000e+02	2.99423	155.5
741	1.60691e+02	7.41000e+02	2.99167	160.5
751	1.65778e+02	7.51000e+02	2.98891	165.5
761	1.70866e+02	7.61000e+02	2.98501	170.5
771	1.75957e+02	7.71000e+02	2.97991	175.5
781	1.81050e+02	7.81000e+02	2.97211	180.5
791	1.86165e+02	7.91000e+02	2.96062	185.5
801	1.91278e+02	8.01000e+02	2.946	190.5
811	1.96407e+02	8.11000e+02	2.92921	195.5
821	2.01548e+02	8.21000e+02	2.91273	200.5
831	2.06682e+02	8.31000e+02	2.89888	205.5
841	2.11852e+02	8.41000e+02	2.8892	210.5
851	2.16971e+02	8.51000e+02	2.88329	215.5
861	2.22062e+02	8.61000e+02	2.87929	220.5
871	2.27167e+02	8.71000e+02	2.87566	225.5
881	2.32294e+02	8.81000e+02	2.87189	230.5
891	2.37404e+02	8.91000e+02	2.868	235.5
901	2.42522e+02	9.01000e+02	2.86448	240.5
911	2.47625e+02	9.11000e+02	2.86131	245.5
921	2.52748e+02	9.21000e+02	2.85859	250.5
931	2.57879e+02	9.31000e+02	2.85621	255.5
941	2.62951e+02	9.41000e+02	2.85376	260.5
951	2.68048e+02	9.51000e+02	2.85115	265.5
961	2.73095e+02	9.61000e+02	2.84868	270.5
971	2.78213e+02	9.71000e+02	2.84567	275.5
981	2.83287e+02	9.81000e+02	2.8416	280.5
991	2.88326e+02	9.91000e+02	2.83595	285.5
1001	2.93306e+02	1.00100e+03	2.82831	290.5
1011	2.98183e+02	1.01100e+03	2.81775	295.5
1021	3.02854e+02	1.02100e+03	2.8036	300.5
1031	3.07468e+02	1.03100e+03	2.78601	305.5
1041	3.12018e+02	1.04100e+03	2.76524	310.5
1051	3.16759e+02	1.05100e+03	2.74135	315.5
1061	3.21743e+02	1.06100e+03	2.71716	320.5
1071	3.26747e+02	1.07100e+03	2.69279	325.5
1081	3.31787e+02	1.08100e+03	2.66487	330.5
1091	3.36828e+02	1.09100e+03	2.62856	335.5
1101	3.42123e+02	1.10100e+03	2.57889	340.5
1111	3.47100e+02	1.11100e+03	2.51239	345.5
1121	3.52062e+02	1.12100e+03	2.42285	350.5
1131	3.57096e+02	1.13100e+03	2.30804	355.5
1141	3.62128e+02	1.14100e+03	2.1649	360.5
1151	3.67139e+02	1.15100e+03	1.99636	365.5
1161	3.72244e+02	1.16100e+03	1.80412	370.5
1171	3.77176e+02	1.17100e+03	1.59154	375.5
1181	3.82142e+02	1.18100e+03	1.36364	380.5
1191	3.87137e+02	1.19100e+03	1.12444	385.5
1201	3.92125e+02	1.20100e+03	0.889439	390.5
1211	3.97144e+02	1.21100e+03	0.670615	395.5
1221	4.02199e+02	1.22100e+03	0.481983	400.5
1231	4.07329e+02	1.23100e+03	0.329242	405.5
1241	4.12429e+02	1.24100e+03	0.215397	410.5
1251	4.17475e+02	1.25100e+03	0.133963	415.5
1261	4.22503e+02	1.26100e+03	0.0804931	420.5
1271	4.27572e+02	1.27100e+03	0.0472199	425.5
1281	4.32588e+02	1.28100e+03	0.0288284	430.5
1291	4.37566e+02	1.29100e+03	0.0187191	435.5
1301	4.42528e+02	1.30100e+03	0.0133699	440.5
1311	4.47462e+02	1.31100e+03	0.0105104	445.5
1321	4.52384e+02	1.32100e+03	0.00880889	450.5
1331	4.57270e+02	1.33100e+03	0.00793614	455.5
1341	4.62170e+02	1.34100e+03	0.00744922	460.5
1351	4.67032e+02	1.35100e+03	0.0070883	465.5
1361	4.71877e+02	1.36100e+03	0.00716123	470.5
1371	4.76748e+02	1.37100e+03	0.00684961	475.5
1381	4.81601e+02	1.38100e+03	0.00660593	480.5
1391	4.86449e+02	1.39100e+03	0.0064222	485.5
1401	4.91256e+02	1.40100e+03	0.00624529	490.5
1411	4.96111e+02	1.41100e+03	0.00612983	495.5
1421	5.01046e+02	1.42100e+03	0.0059101	500.5
1431	5.05958e+02	1.43100e+03	0.00576071	505.5
1441	5.10849e+02	1.44100e+03	0.00551256	510.5
1451	5.15822e+02	1.45100e+03	0.00548847	515.5
1461	5.20771e+02	1.46100e+03	0.00550132	520.5
1471	5.25702e+02	1.47100e+03	0.00537023	525.5
1481	5.30651e+02	1.48100e+03	0.00531867	530.5
1491	5.35657e+02	1.49100e+03	0.00529051	535.5
1501	5.40658e+02	1.50100e+03	0.00519449	540.5
1511	5.46129e+02	1.51100e+03	0.00513954	545.5
1521	5.51036e+02	1.52100e+03	0.00498614	550.5
1531	5.55996e+02	1.53100e+03	0.00509479	555.5
1541	5.61025e+02	1.54100e+03	0.0050193	560.5
1551	5.66006e+02	1.55100e+03	0.00492568	565.5
1561	5.70897e+02	1.56100e+03	0.00500954	570.5
1571	5.75870e+02	1.57100e+03	0.00496379	575.5
1581	5.80894e+02	1.58100e+03	0.00497348	580.5
1591	5.86014e+02	1.59100e+03	0.0049047	585.5
1601	5.91686e+02	1.60100e+03	0.00496581	590.5
1611	5.95598e+02	1.61100e+03	0.00500727	595.5
1621	6.00311e+02	1.62100e+03	0.00510542	600.5
1631	6.05230e+02	1.63100e+03	0.00498584	605.5
1641	6.10149e+02	1.64100e+03	0.00482302	610.5
1651	6.15388e+02	1.65100e+03	0.00484522	615.5
1661	6.20565e+02	1.66100e+03	0.00480858	620.5
1671	6.25489e+02	1.67100e+03	0.00476295	625.5
1681	6.30452e+02	1.68100e+03	0.00470275	630.5
1691	6.35327e+02	1.69100e+03	0.00467398	635.5
1701	6.40287e+02	1.70100e+03	0.00482568	640.5
1711	6.45256e+02	1.71100e+03	0.00496328	645.5
1721	6.50211e+02	1.72100e+03	0.00496513	650.5
1731	6.55233e+02	1.73100e+03	0.00467682	655.5
1741	6.60280e+02	1.74100e+03	0.00469706	660.5
1751	6.65390e+02	1.75100e+03	0.00484187	665.5
1761	6.70500e+02	1.76100e+03	0.00488623	670.5
1771	6.75745e+02	1.77100e+03	0.00490308	675.5
1781	6.80866e+02	1.78100e+03	0.00473079	680.5
1791	6.86018e+02	1.79100e+03	0.0046709	685.5
1801	6.89598e+02	1.80100e+03	0.00485835	690.5
1811	6.92568e+02	1.81100e+03	0.00463894	695.5
1821	6.94768e+02	1.82100e+03	0.00442336	700.0
1831	6.96375e+02	1.83100e+03	0.00439486	700.0
1841	6.97599e+02	1.84100e+03	0.00444965	700.0
1851	6.98357e+02	1.85100e+03	0.00461308	700.0
1861	6.98924e+02	1.86100e+03	0.0044348	700.0
1871	6.99302e+02	1.87100e+03	0.00424532	700.0
1881	6.99636e+02	1.88100e+03	0.00428082	700.0
1891	6.99915e+02	1.89100e+03	0.00455111	700.0
1901	7.00122e+02	1.90100e+03	0.00421532	700.0
1911	7.00296e+02	1.91100e+03	0.00424834	700.0
1921	7.00418e+02	1.92100e+03	0.00419015	700.0
1931	7.00515e+02	1.93100e+03	0.00426347	700.0
1941	7.00577e+02	1.94100e+03	0.00440633	700.0
1951	7.00645e+02	1.95100e+03	0.00429503	700.0
1961	7.00712e+02	1.96100e+03	0.00402325	700.0
1971	7.00767e+02	1.97100e+03	0.00423292	700.0
1981	7.00811e+02	1.98100e+03	0.00411889	700.0
1991	7.00859e+02	1.99100e+03	0.00408064	700.0
2001	7.00885e+02	2.00100e+03	0.00410372	700.0
2011	7.00914e+02	2.01100e+03	0.00407029	700.0
2021	7.00918e+02	2.02100e+03	0.00418816	700.0
2031	7.00934e+02	2.03100e+03	0.0042476	700.0
2041	7.00947e+02	2.04100e+03	0.00420545	700.0
2051	7.00957e+02	2.05100e+03	0.00406136	700.0
2061	7.00969e+02	2.06100e+03	0.00413131	700.0
2071	7.00975e+02	2.07100e+03	0.00424302	700.0
2081	7.00993e+02	2.08100e+03	0.00426319	700.0
2091	7.00994e+02	2.09100e+03	0.0040979	700.0
2101	7.00993e+02	2.10100e+03	0.00407995	700.0
2111	7.00987e+02	2.11100e+03	0.00413917	700.0
2121	7.00992e+02	2.12100e+03	0.00413611	700.0
2131	7.01000e+02	2.13100e+03	0.00402764	700.0
2141	7.00986e+02	2.14100e+03	0.00391201	700.0
2151	7.00983e+02	2.15100e+03	0.00394921	700.0
2161	7.00962e+02	2.16100e+03	0.00405476	700.0
2171	7.00949e+02	2.17100e+03	0.00414491	700.0
2181	7.00938e+02	2.18100e+03	0.00414095	700.0
2191	7.00921e+02	2.19100e+03	0.00393107	700.0
2201	7.00896e+02	2.20100e+03	0.00402693	700.0
2211	7.00888e+02	2.21100e+03	0.00402847	700.0
2221	7.00872e+02	2.22100e+03	0.00408967	700.0
2231	7.00847e+02	2.23100e+03	0.00411413	700.0
2241	7.00832e+02	2.24100e+03	0.00396414	700.0
2251	7.00816e+02	2.25100e+03	0.00382758	700.0
2261	7.00784e+02	2.26100e+03	0.00384512	700.0
2271	7.00755e+02	2.27100e+03	0.00391989	700.0
2281	7.00728e+02	2.28100e+03	0.00391905	700.0
2291	7.00714e+02	2.29100e+03	0.00391404	700.0
2301	7.00703e+02	2.30100e+03	0.0038341	700.0
2311	7.00691e+02	2.31100e+03	0.00391603	700.0
2321	7.00681e+02	2.32100e+03	0.00395994	700.0
2331	7.00668e+02	2.33100e+03	0.00377669	700.0
2341	7.00652e+02	2.34100e+03	0.00381999	700.0
2351	7.00629e+02	2.35100e+03	0.00397677	700.0
2361	7.00611e+02	2.36100e+03	0.0039746	700.0
2371	7.00604e+02	2.37100e+03	0.0038363	700.0
2381	7.00597e+02	2.38100e+03	0.00393904	700.0
2391	7.00589e+02	2.39100e+03	0.00380445	700.0
2401	7.00580e+02	2.40100e+03	0.00386251	700.0
2411	7.00578e+02	2.41100e+03	0.00379849	700.0
2421	7.00556e+02	2.42100e+03	0.00398976	700.0
2431	7.00549e+02	2.43100e+03	0.00395624	700.0
2441	7.00551e+02	2.44100e+03	0.00406387	700.0
2451	7.00547e+02	2.45100e+03	0.00398941	700.0
2461	7.00542e+02	2.46100e+03	0.00409118	700.0
2471	7.00539e+02	2.47100e+03	0.00416101	700.0
2481	7.00543e+02	2.48100e+03	0.00412955	700.0
2491	7.00521e+02	2.49100e+03	0.00414704	700.0
2501	7.00527e+02	2.50100e+03	0.00416616	700.0
2511	7.00510e+02	2.51100e+03	0.00395431	700.0
2521	7.00509e+02	2.52100e+03	0.00396015	700.0
2531	7.00496e+02	2.53100e+03	0.00400475	700.0
2541	7.00494e+02	2.54100e+03	0.00386992	700.0
2551	7.00478e+02	2.55100e+03	0.00399971	700.0
2561	7.00477e+02	2.56100e+03	0.00405502	700.0
2571	7.00469e+02	2.57100e+03	0.0040749	700.0
2581	7.00459e+02	2.58100e+03	0.00407703	700.0
2591	7.00463e+02	2.59100e+03	0.00407834	700.0
2601	7.00456e+02	2.60100e+03	0.00407154	700.0
2611	7.00454e+02	2.61100e+03	0.00396317	700.0
2621	7.00441e+02	2.62100e+03	0.00402226	700.0
2631	7.00435e+02	2.63100e+03	0.00412438	700.0
2641	7.00432e+02	2.64100e+03	0.0042165	700.0
2651	7.00426e+02	2.65100e+03	0.00398203	700.0
2661	7.00419e+02	2.66100e+03	0.00399546	700.0
2671	7.00400e+02	2.67100e+03	0.0040542	700.0
2681	7.00388e+02	2.68100e+03	0.00404174	700.0
2691	7.00376e+02	2.69100e+03	0.00404259	700.0
2701	7.00365e+02	2.70100e+03	0.00404041	700.0
2711	7.00355e+02	2.71100e+03	0.00415393	700.0
2720	7.00356e+02	2.72000e+03	0.00410281	700.0