File: Experiments/TUBS/tga_nonisotherm/tga_dynamic_n2_dyn30_piece_2mg_r2.txt
index	ts	t	weight	tr
[#]	[°C]	[s]	[mg]	[°C]
683	1.31187e+02	6.83000e+02	1.98244e+00	1.31500e+02
690	1.34720e+02	6.90000e+02	1.98231e+00	1.35000e+02
697	1.38258e+02	6.97000e+02	1.98216e+00	1.38500e+02
704	1.41810e+02	7.04000e+02	1.98196e+00	1.42000e+02
711	1.45326e+02	7.11000e+02	1.98181e+00	1.45500e+02
718	1.48861e+02	7.18000e+02	1.98165e+00	1.49000e+02
725	1.52401e+02	7.25000e+02	1.98149e+00	1.52500e+02
732	1.55939e+02	7.32000e+02	1.98139e+00	1.56000e+02
739	1.59460e+02	7.39000e+02	1.98107e+00	1.59500e+02
746	1.63014e+02	7.46000e+02	1.98075e+00	1.63000e+02
753	1.66555e+02	7.53000e+02	1.98054e+00	1.66500e+02
760	1.70110e+02	7.60000e+02	1.98020e+00	1.70000e+02
767	1.73642e+02	7.67000e+02	1.97985e+00	1.73500e+02
774	1.77194e+02	7.74000e+02	1.97965e+00	1.77000e+02
781	1.80734e+02	7.81000e+02	1.97932e+00	1.80500e+02
788	1.84284e+02	7.88000e+02	1.97892e+00	1.84000e+02
795	1.87840e+02	7.95000e+02	1.97834e+00	1.87500e+02
802	1.91403e+02	8.02000e+02	1.97757e+00	1.91000e+02
809	1.94948e+02	8.09000e+02	1.97664e+00	1.94500e+02
816	1.98479e+02	8.16000e+02	1.97547e+00	1.98000e+02
823	2.02044e+02	8.23000e+02	1.97425e+00	2.01500e+02
830	2.05598e+02	8.30000e+02	1.97281e+00	2.05000e+02
837	2.09157e+02	8.37000e+02	1.97112e+00	2.08500e+02
844	2.12739e+02	8.44000e+02	1.96923e+00	2.12000e+02
851	2.16314e+02	8.51000e+02	1.96742e+00	2.15500e+02
858	2.19931e+02	8.58000e+02	1.96573e+00	2.19000e+02
865	2.23491e+02	8.65000e+02	1.96399e+00	2.22500e+02
872	2.27053e+02	8.72000e+02	1.96226e+00	2.26000e+02
879	2.30618e+02	8.79000e+02	1.96034e+00	2.29500e+02
886	2.34202e+02	8.86000e+02	1.95811e+00	2.33000e+02
893	2.37779e+02	8.93000e+02	1.95597e+00	2.36500e+02
900	2.41371e+02	9.00000e+02	1.95388e+00	2.40000e+02
907	2.44996e+02	9.07000e+02	1.95172e+00	2.43500e+02
914	2.48620e+02	9.14000e+02	1.94931e+00	2.47000e+02
921	2.52296e+02	9.21000e+02	1.94695e+00	2.50500e+02
928	2.55884e+02	9.28000e+02	1.94469e+00	2.54000e+02
935	2.59387e+02	9.35000e+02	1.94211e+00	2.57500e+02
942	2.62926e+02	9.42000e+02	1.93963e+00	2.61000e+02
949	2.66474e+02	9.49000e+02	1.93723e+00	2.64500e+02
956	2.69992e+02	9.56000e+02	1.93465e+00	2.68000e+02
963	2.73544e+02	9.63000e+02	1.93197e+00	2.71500e+02
970	2.77103e+02	9.70000e+02	1.92924e+00	2.75000e+02
977	2.80632e+02	9.77000e+02	1.92638e+00	2.78500e+02
984	2.84161e+02	9.84000e+02	1.92328e+00	2.82000e+02
991	2.87695e+02	9.91000e+02	1.92023e+00	2.85500e+02
998	2.91142e+02	9.98000e+02	1.91691e+00	2.89000e+02
1005	2.94658e+02	1.00500e+03	1.91332e+00	2.92500e+02
1012	2.98186e+02	1.01200e+03	1.90891e+00	2.96000e+02
1019	3.01688e+02	1.01900e+03	1.90430e+00	2.99500e+02
1026	3.05178e+02	1.02600e+03	1.89924e+00	3.03000e+02
1033	3.08615e+02	1.03300e+03	1.89367e+00	3.06500e+02
1040	3.12111e+02	1.04000e+03	1.88722e+00	3.10000e+02
1047	3.15454e+02	1.04700e+03	1.87963e+00	3.13500e+02
1054	3.18446e+02	1.05400e+03	1.87030e+00	3.17000e+02
1061	3.21765e+02	1.06100e+03	1.85956e+00	3.20500e+02
1068	3.25151e+02	1.06800e+03	1.84906e+00	3.24000e+02
1075	3.28631e+02	1.07500e+03	1.83932e+00	3.27500e+02
1082	3.32123e+02	1.08200e+03	1.82984e+00	3.31000e+02
1089	3.35609e+02	1.08900e+03	1.81943e+00	3.34500e+02
1096	3.39100e+02	1.09600e+03	1.80758e+00	3.38000e+02
1103	3.42587e+02	1.10300e+03	1.79361e+00	3.41500e+02
1110	3.46064e+02	1.11000e+03	1.77672e+00	3.45000e+02
1117	3.49528e+02	1.11700e+03	1.75603e+00	3.48500e+02
1124	3.53015e+02	1.12400e+03	1.72931e+00	3.52000e+02
1131	3.56494e+02	1.13100e+03	1.69222e+00	3.55500e+02
1138	3.59976e+02	1.13800e+03	1.64430e+00	3.59000e+02
1145	3.63472e+02	1.14500e+03	1.58626e+00	3.62500e+02
1152	3.66998e+02	1.15200e+03	1.51810e+00	3.66000e+02
1159	3.70473e+02	1.15900e+03	1.43719e+00	3.69500e+02
1166	3.73933e+02	1.16600e+03	1.34184e+00	3.73000e+02
1173	3.77392e+02	1.17300e+03	1.23566e+00	3.76500e+02
1180	3.80890e+02	1.18000e+03	1.12026e+00	3.80000e+02
1187	3.84350e+02	1.18700e+03	9.96883e-01	3.83500e+02
1194	3.87842e+02	1.19400e+03	8.73567e-01	3.87000e+02
1201	3.91362e+02	1.20100e+03	7.52229e-01	3.90500e+02
1208	3.94894e+02	1.20800e+03	6.31426e-01	3.94000e+02
1215	3.98454e+02	1.21500e+03	5.10313e-01	3.97500e+02
1222	4.02008e+02	1.22200e+03	3.91596e-01	4.01000e+02
1229	4.05600e+02	1.22900e+03	2.85611e-01	4.04500e+02
1236	4.09175e+02	1.23600e+03	1.98270e-01	4.08000e+02
1243	4.12759e+02	1.24300e+03	1.30511e-01	4.11500e+02
1250	4.16320e+02	1.25000e+03	8.17629e-02	4.15000e+02
1257	4.19838e+02	1.25700e+03	4.73144e-02	4.18500e+02
1264	4.23381e+02	1.26400e+03	2.39559e-02	4.22000e+02
1271	4.26946e+02	1.27100e+03	8.17697e-03	4.25500e+02
1278	4.30462e+02	1.27800e+03	-2.17824e-03	4.29000e+02
1285	4.33953e+02	1.28500e+03	-9.26076e-03	4.32500e+02
1292	4.37410e+02	1.29200e+03	-1.41806e-02	4.36000e+02
1299	4.40880e+02	1.29900e+03	-1.78971e-02	4.39500e+02
1306	4.44361e+02	1.30600e+03	-2.06728e-02	4.43000e+02
1313	4.47834e+02	1.31300e+03	-2.26713e-02	4.46500e+02
1320	4.51322e+02	1.32000e+03	-2.40849e-02	4.50000e+02
1327	4.54862e+02	1.32700e+03	-2.51931e-02	4.53500e+02
1334	4.58368e+02	1.33400e+03	-2.57215e-02	4.57000e+02
1341	4.61813e+02	1.34100e+03	-2.58116e-02	4.60500e+02
1348	4.65195e+02	1.34800e+03	-2.59830e-02	4.64000e+02
1355	4.68613e+02	1.35500e+03	-2.63624e-02	4.67500e+02
1362	4.72044e+02	1.36200e+03	-2.65360e-02	4.71000e+02
1369	4.75495e+02	1.36900e+03	-2.64728e-02	4.74500e+02
1376	4.78920e+02	1.37600e+03	-2.66398e-02	4.78000e+02
1383	4.82368e+02	1.38300e+03	-2.67984e-02	4.81500e+02
1390	4.85838e+02	1.39000e+03	-2.69852e-02	4.85000e+02
1397	4.89275e+02	1.39700e+03	-2.71391e-02	4.88500e+02
1404	4.92727e+02	1.40400e+03	-2.72748e-02	4.92000e+02
1411	4.96171e+02	1.41100e+03	-2.76133e-02	4.95500e+02
1418	4.99597e+02	1.41800e+03	-2.77628e-02	4.99000e+02
1425	5.03026e+02	1.42500e+03	-2.79642e-02	5.02500e+02
1432	5.06434e+02	1.43200e+03	-2.80846e-02	5.06000e+02
1439	5.09818e+02	1.43900e+03	-2.81791e-02	5.09500e+02
1446	5.13207e+02	1.44600e+03	-2.84231e-02	5.13000e+02
1453	5.16607e+02	1.45300e+03	-2.86812e-02	5.16500e+02
1460	5.20056e+02	1.46000e+03	-2.82313e-02	5.20000e+02
1467	5.23503e+02	1.46700e+03	-2.82744e-02	5.23500e+02
1474	5.26941e+02	1.47400e+03	-2.86715e-02	5.27000e+02
1481	5.30382e+02	1.48100e+03	-2.87705e-02	5.30500e+02
1488	5.33792e+02	1.48800e+03	-2.87866e-02	5.34000e+02
1495	5.37231e+02	1.49500e+03	-2.88637e-02	5.37500e+02
1502	5.40652e+02	1.50200e+03	-2.90863e-02	5.41000e+02
1509	5.44075e+02	1.50900e+03	-2.91699e-02	5.44500e+02
1516	5.47489e+02	1.51600e+03	-2.92235e-02	5.48000e+02
1523	5.50919e+02	1.52300e+03	-2.94335e-02	5.51500e+02
1530	5.54339e+02	1.53000e+03	-2.96025e-02	5.55000e+02
1537	5.57738e+02	1.53700e+03	-2.98079e-02	5.58500e+02
1544	5.61155e+02	1.54400e+03	-2.94790e-02	5.62000e+02
1551	5.64540e+02	1.55100e+03	-2.95922e-02	5.65500e+02
1558	5.67936e+02	1.55800e+03	-2.95760e-02	5.69000e+02
1565	5.71340e+02	1.56500e+03	-2.97151e-02	5.72500e+02
1572	5.74766e+02	1.57200e+03	-2.98653e-02	5.76000e+02
1579	5.78183e+02	1.57900e+03	-2.97779e-02	5.79500e+02
1586	5.81664e+02	1.58600e+03	-2.97583e-02	5.83000e+02
1593	5.85148e+02	1.59300e+03	-2.98209e-02	5.86500e+02
1600	5.88650e+02	1.60000e+03	-2.98373e-02	5.90000e+02
1607	5.92107e+02	1.60700e+03	-2.99974e-02	5.93500e+02
1614	5.95595e+02	1.61400e+03	-3.01286e-02	5.97000e+02
1621	5.99068e+02	1.62100e+03	-3.01593e-02	6.00500e+02
1628	6.02557e+02	1.62800e+03	-3.01221e-02	6.04000e+02
1635	6.06051e+02	1.63500e+03	-3.01007e-02	6.07500e+02
1642	6.09544e+02	1.64200e+03	-3.00594e-02	6.11000e+02
1649	6.13090e+02	1.64900e+03	-3.01139e-02	6.14500e+02
1656	6.16877e+02	1.65600e+03	-3.00569e-02	6.18000e+02
1663	6.21716e+02	1.66300e+03	-3.00942e-02	6.21500e+02
1670	6.25407e+02	1.67000e+03	-3.01726e-02	6.25000e+02
1677	6.29699e+02	1.67700e+03	-3.01699e-02	6.28500e+02
1684	6.32935e+02	1.68400e+03	-3.02484e-02	6.32000e+02
1691	6.36189e+02	1.69100e+03	-3.02142e-02	6.35500e+02
1698	6.39607e+02	1.69800e+03	-3.01511e-02	6.39000e+02
1705	6.43066e+02	1.70500e+03	-3.01512e-02	6.42500e+02
1712	6.46550e+02	1.71200e+03	-3.01849e-02	6.46000e+02
1719	6.49974e+02	1.71900e+03	-3.02836e-02	6.49500e+02
1726	6.53375e+02	1.72600e+03	-3.04343e-02	6.53000e+02
1733	6.56810e+02	1.73300e+03	-2.98261e-02	6.56500e+02
1740	6.60288e+02	1.74000e+03	-2.97968e-02	6.60000e+02
1747	6.63756e+02	1.74700e+03	-3.01783e-02	6.63500e+02
1754	6.67191e+02	1.75400e+03	-3.02606e-02	6.67000e+02
1761	6.70619e+02	1.76100e+03	-3.02804e-02	6.70500e+02
1768	6.74011e+02	1.76800e+03	-3.02934e-02	6.74000e+02
1775	6.77453e+02	1.77500e+03	-3.02916e-02	6.77500e+02
1782	6.80937e+02	1.78200e+03	-3.04888e-02	6.81000e+02
1789	6.84455e+02	1.78900e+03	-3.06996e-02	6.84500e+02
1796	6.87270e+02	1.79600e+03	-3.03063e-02	6.88000e+02
1803	6.89698e+02	1.80300e+03	-2.99618e-02	6.91500e+02
1810	6.91735e+02	1.81000e+03	-3.02822e-02	6.95000e+02
1817	6.93376e+02	1.81700e+03	-3.03414e-02	6.98500e+02
1820	6.93967e+02	1.82000e+03	-3.02981e-02	7.00000e+02