File: Experiments/TUBS/tga_nonisotherm/tga_dynamic_n2_dyn10_piece_3mg_r3.txt
index	ts	t	weight	tr
[#]	[°C]	[s]	[mg]	[°C]
843	1.30318e+02	8.43000e+02	2.98309e+00	1.30500e+02
862	1.33524e+02	8.62000e+02	2.98297e+00	1.33667e+02
881	1.36711e+02	8.81000e+02	2.98246e+00	1.36833e+02
900	1.39919e+02	9.00000e+02	2.98238e+00	1.40000e+02
919	1.43124e+02	9.19000e+02	2.98215e+00	1.43167e+02
938	1.46326e+02	9.38000e+02	2.98211e+00	1.46333e+02
957	1.49541e+02	9.57000e+02	2.98150e+00	1.49500e+02
976	1.52738e+02	9.76000e+02	2.98098e+00	1.52667e+02
995	1.55941e+02	9.95000e+02	2.98058e+00	1.55833e+02
1014	1.59167e+02	1.01400e+03	2.98013e+00	1.59000e+02
1033	1.62385e+02	1.03300e+03	2.97993e+00	1.62167e+02
1052	1.65602e+02	1.05200e+03	2.97932e+00	1.65333e+02
1071	1.68836e+02	1.07100e+03	2.97884e+00	1.68500e+02
1090	1.72050e+02	1.09000e+03	2.97815e+00	1.71667e+02
1109	1.75253e+02	1.10900e+03	2.97746e+00	1.74833e+02
1128	1.78468e+02	1.12800e+03	2.97651e+00	1.78000e+02
1147	1.81685e+02	1.14700e+03	2.97500e+00	1.81167e+02
1166	1.84894e+02	1.16600e+03	2.97320e+00	1.84333e+02
1185	1.88104e+02	1.18500e+03	2.97131e+00	1.87500e+02
1204	1.91266e+02	1.20400e+03	2.96924e+00	1.90667e+02
1223	1.94450e+02	1.22300e+03	2.96651e+00	1.93833e+02
1242	1.97651e+02	1.24200e+03	2.96393e+00	1.97000e+02
1261	2.00835e+02	1.26100e+03	2.96097e+00	2.00167e+02
1280	2.04030e+02	1.28000e+03	2.95821e+00	2.03333e+02
1299	2.07232e+02	1.29900e+03	2.95537e+00	2.06500e+02
1318	2.10410e+02	1.31800e+03	2.95250e+00	2.09667e+02
1337	2.13590e+02	1.33700e+03	2.94987e+00	2.12833e+02
1356	2.16766e+02	1.35600e+03	2.94695e+00	2.16000e+02
1375	2.19884e+02	1.37500e+03	2.94374e+00	2.19167e+02
1394	2.23025e+02	1.39400e+03	2.94078e+00	2.22333e+02
1413	2.26197e+02	1.41300e+03	2.93746e+00	2.25500e+02
1432	2.29362e+02	1.43200e+03	2.93419e+00	2.28667e+02
1451	2.32544e+02	1.45100e+03	2.93106e+00	2.31833e+02
1470	2.35731e+02	1.47000e+03	2.92764e+00	2.35000e+02
1489	2.38939e+02	1.48900e+03	2.92411e+00	2.38167e+02
1508	2.42152e+02	1.50800e+03	2.92066e+00	2.41333e+02
1527	2.45461e+02	1.52700e+03	2.91722e+00	2.44500e+02
1546	2.48692e+02	1.54600e+03	2.91320e+00	2.47667e+02
1565	2.51911e+02	1.56500e+03	2.90954e+00	2.50833e+02
1584	2.55131e+02	1.58400e+03	2.90560e+00	2.54000e+02
1603	2.58334e+02	1.60300e+03	2.90182e+00	2.57167e+02
1622	2.61572e+02	1.62200e+03	2.89778e+00	2.60333e+02
1641	2.64950e+02	1.64100e+03	2.89375e+00	2.63500e+02
1660	2.68263e+02	1.66000e+03	2.88945e+00	2.66667e+02
1679	2.71528e+02	1.67900e+03	2.88467e+00	2.69833e+02
1698	2.74766e+02	1.69800e+03	2.88008e+00	2.73000e+02
1717	2.78037e+02	1.71700e+03	2.87465e+00	2.76167e+02
1736	2.81309e+02	1.73600e+03	2.86938e+00	2.79333e+02
1755	2.84554e+02	1.75500e+03	2.86347e+00	2.82500e+02
1774	2.87676e+02	1.77400e+03	2.85698e+00	2.85667e+02
1793	2.90844e+02	1.79300e+03	2.84968e+00	2.88833e+02
1812	2.93999e+02	1.81200e+03	2.84148e+00	2.92000e+02
1831	2.97224e+02	1.83100e+03	2.83286e+00	2.95167e+02
1850	3.00391e+02	1.85000e+03	2.82336e+00	2.98333e+02
1869	3.03540e+02	1.86900e+03	2.81341e+00	3.01500e+02
1888	3.06736e+02	1.88800e+03	2.80269e+00	3.04667e+02
1907	3.09913e+02	1.90700e+03	2.79179e+00	3.07833e+02
1926	3.13103e+02	1.92600e+03	2.78052e+00	3.11000e+02
1945	3.16208e+02	1.94500e+03	2.76883e+00	3.14167e+02
1964	3.19381e+02	1.96400e+03	2.75632e+00	3.17333e+02
1983	3.22475e+02	1.98300e+03	2.74251e+00	3.20500e+02
2002	3.25532e+02	2.00200e+03	2.72681e+00	3.23667e+02
2021	3.28595e+02	2.02100e+03	2.70878e+00	3.26833e+02
2040	3.31711e+02	2.04000e+03	2.68728e+00	3.30000e+02
2059	3.34836e+02	2.05900e+03	2.66131e+00	3.33167e+02
2078	3.37997e+02	2.07800e+03	2.62986e+00	3.36333e+02
2097	3.41182e+02	2.09700e+03	2.59006e+00	3.39500e+02
2116	3.44358e+02	2.11600e+03	2.53071e+00	3.42667e+02
2135	3.47542e+02	2.13500e+03	2.45932e+00	3.45833e+02
2154	3.50718e+02	2.15400e+03	2.37557e+00	3.49000e+02
2173	3.54019e+02	2.17300e+03	2.27289e+00	3.52167e+02
2192	3.57380e+02	2.19200e+03	2.15391e+00	3.55333e+02
2211	3.60595e+02	2.21100e+03	2.01934e+00	3.58500e+02
2230	3.63831e+02	2.23000e+03	1.86725e+00	3.61667e+02
2249	3.66979e+02	2.24900e+03	1.70087e+00	3.64833e+02
2268	3.70120e+02	2.26800e+03	1.52480e+00	3.68000e+02
2287	3.73279e+02	2.28700e+03	1.34243e+00	3.71167e+02
2306	3.76500e+02	2.30600e+03	1.16597e+00	3.74333e+02
2325	3.80013e+02	2.32500e+03	9.90825e-01	3.77500e+02
2344	3.83280e+02	2.34400e+03	8.15244e-01	3.80667e+02
2363	3.86582e+02	2.36300e+03	6.47533e-01	3.83833e+02
2382	3.89752e+02	2.38200e+03	4.98252e-01	3.87000e+02
2401	3.92866e+02	2.40100e+03	3.74548e-01	3.90167e+02
2420	3.95775e+02	2.42000e+03	2.76346e-01	3.93333e+02
2439	3.98862e+02	2.43900e+03	2.01148e-01	3.96500e+02
2458	4.01992e+02	2.45800e+03	1.46109e-01	3.99667e+02
2477	4.05198e+02	2.47700e+03	1.07077e-01	4.02833e+02
2496	4.08251e+02	2.49600e+03	7.94616e-02	4.06000e+02
2515	4.11300e+02	2.51500e+03	5.91946e-02	4.09167e+02
2534	4.14277e+02	2.53400e+03	4.43706e-02	4.12333e+02
2553	4.17595e+02	2.55300e+03	3.34085e-02	4.15500e+02
2572	4.20481e+02	2.57200e+03	2.46821e-02	4.18667e+02
2591	4.23566e+02	2.59100e+03	1.75239e-02	4.21833e+02
2610	4.26524e+02	2.61000e+03	1.13359e-02	4.25000e+02
2629	4.29468e+02	2.62900e+03	6.92422e-03	4.28167e+02
2648	4.32511e+02	2.64800e+03	3.42134e-03	4.31333e+02
2667	4.35621e+02	2.66700e+03	1.42554e-03	4.34500e+02
2686	4.38723e+02	2.68600e+03	2.86008e-04	4.37667e+02
2705	4.41854e+02	2.70500e+03	-3.32103e-04	4.40833e+02
2724	4.45002e+02	2.72400e+03	-1.00730e-03	4.44000e+02
2743	4.48193e+02	2.74300e+03	-1.22844e-03	4.47167e+02
2762	4.51444e+02	2.76200e+03	-1.69338e-03	4.50333e+02
2781	4.54629e+02	2.78100e+03	-2.06308e-03	4.53500e+02
2800	4.57737e+02	2.80000e+03	-2.31861e-03	4.56667e+02
2819	4.60789e+02	2.81900e+03	-2.65028e-03	4.59833e+02
2838	4.63921e+02	2.83800e+03	-2.88800e-03	4.63000e+02
2857	4.67013e+02	2.85700e+03	-2.98751e-03	4.66167e+02
2876	4.70115e+02	2.87600e+03	-3.16154e-03	4.69333e+02
2895	4.73319e+02	2.89500e+03	-3.30843e-03	4.72500e+02
2914	4.76301e+02	2.91400e+03	-3.35637e-03	4.75667e+02
2933	4.79418e+02	2.93300e+03	-3.49193e-03	4.78833e+02
2952	4.82438e+02	2.95200e+03	-3.47294e-03	4.82000e+02
2971	4.85097e+02	2.97100e+03	-3.72754e-03	4.85167e+02
2990	4.88064e+02	2.99000e+03	-3.95682e-03	4.88333e+02
3009	4.91137e+02	3.00900e+03	-3.63152e-03	4.91500e+02
3028	4.94224e+02	3.02800e+03	-3.64333e-03	4.94667e+02
3047	4.97331e+02	3.04700e+03	-3.91365e-03	4.97833e+02
3066	5.00434e+02	3.06600e+03	-3.98564e-03	5.01000e+02
3085	5.03543e+02	3.08500e+03	-4.04377e-03	5.04167e+02
3104	5.06660e+02	3.10400e+03	-3.94873e-03	5.07333e+02
3123	5.09765e+02	3.12300e+03	-4.08955e-03	5.10500e+02
3142	5.12883e+02	3.14200e+03	-3.91606e-03	5.13667e+02
3161	5.15992e+02	3.16100e+03	-3.95995e-03	5.16833e+02
3180	5.19082e+02	3.18000e+03	-4.08398e-03	5.20000e+02
3199	5.22205e+02	3.19900e+03	-4.24511e-03	5.23167e+02
3218	5.25312e+02	3.21800e+03	-4.11245e-03	5.26333e+02
3237	5.28431e+02	3.23700e+03	-4.26489e-03	5.29500e+02
3256	5.31549e+02	3.25600e+03	-4.25946e-03	5.32667e+02
3275	5.34676e+02	3.27500e+03	-4.23323e-03	5.35833e+02
3294	5.37816e+02	3.29400e+03	-4.30956e-03	5.39000e+02
3313	5.40916e+02	3.31300e+03	-4.30568e-03	5.42167e+02
3332	5.44035e+02	3.33200e+03	-3.99729e-03	5.45333e+02
3351	5.47180e+02	3.35100e+03	-4.34744e-03	5.48500e+02
3370	5.50315e+02	3.37000e+03	-4.33116e-03	5.51667e+02
3389	5.53516e+02	3.38900e+03	-4.29995e-03	5.54833e+02
3408	5.56679e+02	3.40800e+03	-4.47643e-03	5.58000e+02
3427	5.59827e+02	3.42700e+03	-4.38709e-03	5.61167e+02
3446	5.63090e+02	3.44600e+03	-4.47738e-03	5.64333e+02
3465	5.66251e+02	3.46500e+03	-4.52781e-03	5.67500e+02
3484	5.69327e+02	3.48400e+03	-4.62343e-03	5.70667e+02
3503	5.72474e+02	3.50300e+03	-4.56193e-03	5.73833e+02
3522	5.75632e+02	3.52200e+03	-4.75560e-03	5.77000e+02
3541	5.78742e+02	3.54100e+03	-4.75100e-03	5.80167e+02
3560	5.81866e+02	3.56000e+03	-4.75309e-03	5.83333e+02
3579	5.84998e+02	3.57900e+03	-4.79958e-03	5.86500e+02
3598	5.88163e+02	3.59800e+03	-4.94203e-03	5.89667e+02
3617	5.91297e+02	3.61700e+03	-4.80609e-03	5.92833e+02
3636	5.94451e+02	3.63600e+03	-4.62919e-03	5.96000e+02
3655	5.97593e+02	3.65500e+03	-4.67799e-03	5.99167e+02
3674	6.00762e+02	3.67400e+03	-5.03238e-03	6.02333e+02
3693	6.03912e+02	3.69300e+03	-4.96477e-03	6.05500e+02
3712	6.07056e+02	3.71200e+03	-5.05083e-03	6.08667e+02
3731	6.10200e+02	3.73100e+03	-4.97699e-03	6.11833e+02
3750	6.13342e+02	3.75000e+03	-5.10694e-03	6.15000e+02
3769	6.16474e+02	3.76900e+03	-5.19799e-03	6.18167e+02
3788	6.19618e+02	3.78800e+03	-5.27396e-03	6.21333e+02
3807	6.22790e+02	3.80700e+03	-5.27546e-03	6.24500e+02
3826	6.25962e+02	3.82600e+03	-5.26850e-03	6.27667e+02
3845	6.29104e+02	3.84500e+03	-5.20023e-03	6.30833e+02
3864	6.32263e+02	3.86400e+03	-5.24671e-03	6.34000e+02
3883	6.35454e+02	3.88300e+03	-5.33350e-03	6.37167e+02
3902	6.38650e+02	3.90200e+03	-5.44336e-03	6.40333e+02
3921	6.41818e+02	3.92100e+03	-5.40375e-03	6.43500e+02
3940	6.45059e+02	3.94000e+03	-5.60662e-03	6.46667e+02
3959	6.48202e+02	3.95900e+03	-5.40544e-03	6.49833e+02
3978	6.51307e+02	3.97800e+03	-5.37016e-03	6.53000e+02
3997	6.54404e+02	3.99700e+03	-5.47056e-03	6.56167e+02
4016	6.57498e+02	4.01600e+03	-5.65952e-03	6.59333e+02
4035	6.60619e+02	4.03500e+03	-5.78989e-03	6.62500e+02
4054	6.63737e+02	4.05400e+03	-5.87112e-03	6.65667e+02
4073	6.66863e+02	4.07300e+03	-5.91000e-03	6.68833e+02
4092	6.69979e+02	4.09200e+03	-5.98368e-03	6.72000e+02
4111	6.73101e+02	4.11100e+03	-5.91075e-03	6.75167e+02
4130	6.76223e+02	4.13000e+03	-6.16183e-03	6.78333e+02
4149	6.79381e+02	4.14900e+03	-6.35505e-03	6.81500e+02
4168	6.82512e+02	4.16800e+03	-6.18998e-03	6.84667e+02
4187	6.85652e+02	4.18700e+03	-6.22485e-03	6.87833e+02
4206	6.88799e+02	4.20600e+03	-5.97671e-03	6.91000e+02
4225	6.91959e+02	4.22500e+03	-6.08884e-03	6.94167e+02
4244	6.94522e+02	4.24400e+03	-6.20431e-03	6.97333e+02
4260	6.95832e+02	4.26000e+03	-6.25033e-03	7.00000e+02