File: Experiments/TUBS/tga_nonisotherm/tga_dynamic_n2_dyn10_piece_2mg_r3.txt
index	ts	t	weight	tr
[#]	[°C]	[s]	[mg]	[°C]
843	1.30969e+02	8.43000e+02	1.96546e+00	1.30500e+02
862	1.34173e+02	8.62000e+02	1.96550e+00	1.33667e+02
881	1.37384e+02	8.81000e+02	1.96493e+00	1.36833e+02
900	1.40601e+02	9.00000e+02	1.96509e+00	1.40000e+02
919	1.43786e+02	9.19000e+02	1.96488e+00	1.43167e+02
938	1.47010e+02	9.38000e+02	1.96504e+00	1.46333e+02
957	1.50228e+02	9.57000e+02	1.96463e+00	1.49500e+02
976	1.53432e+02	9.76000e+02	1.96430e+00	1.52667e+02
995	1.56648e+02	9.95000e+02	1.96403e+00	1.55833e+02
1014	1.59864e+02	1.01400e+03	1.96389e+00	1.59000e+02
1033	1.63083e+02	1.03300e+03	1.96368e+00	1.62167e+02
1052	1.66291e+02	1.05200e+03	1.96347e+00	1.65333e+02
1071	1.69498e+02	1.07100e+03	1.96314e+00	1.68500e+02
1090	1.72706e+02	1.09000e+03	1.96259e+00	1.71667e+02
1109	1.75925e+02	1.10900e+03	1.96202e+00	1.74833e+02
1128	1.79127e+02	1.12800e+03	1.96122e+00	1.78000e+02
1147	1.82322e+02	1.14700e+03	1.95987e+00	1.81167e+02
1166	1.85521e+02	1.16600e+03	1.95852e+00	1.84333e+02
1185	1.88709e+02	1.18500e+03	1.95678e+00	1.87500e+02
1204	1.91906e+02	1.20400e+03	1.95499e+00	1.90667e+02
1223	1.95086e+02	1.22300e+03	1.95266e+00	1.93833e+02
1242	1.98293e+02	1.24200e+03	1.95056e+00	1.97000e+02
1261	2.01498e+02	1.26100e+03	1.94815e+00	2.00167e+02
1280	2.04697e+02	1.28000e+03	1.94591e+00	2.03333e+02
1299	2.07889e+02	1.29900e+03	1.94351e+00	2.06500e+02
1318	2.11071e+02	1.31800e+03	1.94108e+00	2.09667e+02
1337	2.14260e+02	1.33700e+03	1.93902e+00	2.12833e+02
1356	2.17432e+02	1.35600e+03	1.93676e+00	2.16000e+02
1375	2.20615e+02	1.37500e+03	1.93410e+00	2.19167e+02
1394	2.23804e+02	1.39400e+03	1.93181e+00	2.22333e+02
1413	2.26998e+02	1.41300e+03	1.92903e+00	2.25500e+02
1432	2.30183e+02	1.43200e+03	1.92654e+00	2.28667e+02
1451	2.33377e+02	1.45100e+03	1.92387e+00	2.31833e+02
1470	2.36545e+02	1.47000e+03	1.92123e+00	2.35000e+02
1489	2.39713e+02	1.48900e+03	1.91856e+00	2.38167e+02
1508	2.42904e+02	1.50800e+03	1.91591e+00	2.41333e+02
1527	2.46097e+02	1.52700e+03	1.91343e+00	2.44500e+02
1546	2.49309e+02	1.54600e+03	1.91044e+00	2.47667e+02
1565	2.52523e+02	1.56500e+03	1.90782e+00	2.50833e+02
1584	2.55728e+02	1.58400e+03	1.90505e+00	2.54000e+02
1603	2.58909e+02	1.60300e+03	1.90252e+00	2.57167e+02
1622	2.62097e+02	1.62200e+03	1.89954e+00	2.60333e+02
1641	2.65278e+02	1.64100e+03	1.89682e+00	2.63500e+02
1660	2.68507e+02	1.66000e+03	1.89380e+00	2.66667e+02
1679	2.71722e+02	1.67900e+03	1.89040e+00	2.69833e+02
1698	2.74905e+02	1.69800e+03	1.88737e+00	2.73000e+02
1717	2.78123e+02	1.71700e+03	1.88341e+00	2.76167e+02
1736	2.81346e+02	1.73600e+03	1.87964e+00	2.79333e+02
1755	2.84566e+02	1.75500e+03	1.87523e+00	2.82500e+02
1774	2.87792e+02	1.77400e+03	1.87070e+00	2.85667e+02
1793	2.90987e+02	1.79300e+03	1.86512e+00	2.88833e+02
1812	2.94170e+02	1.81200e+03	1.85896e+00	2.92000e+02
1831	2.97381e+02	1.83100e+03	1.85231e+00	2.95167e+02
1850	3.00576e+02	1.85000e+03	1.84513e+00	2.98333e+02
1869	3.03825e+02	1.86900e+03	1.83748e+00	3.01500e+02
1888	3.07202e+02	1.88800e+03	1.82932e+00	3.04667e+02
1907	3.10377e+02	1.90700e+03	1.82122e+00	3.07833e+02
1926	3.13538e+02	1.92600e+03	1.81278e+00	3.11000e+02
1945	3.16719e+02	1.94500e+03	1.80410e+00	3.14167e+02
1964	3.19864e+02	1.96400e+03	1.79433e+00	3.17333e+02
1983	3.23067e+02	1.98300e+03	1.78377e+00	3.20500e+02
2002	3.26333e+02	2.00200e+03	1.77128e+00	3.23667e+02
2021	3.29584e+02	2.02100e+03	1.75670e+00	3.26833e+02
2040	3.32816e+02	2.04000e+03	1.73886e+00	3.30000e+02
2059	3.36022e+02	2.05900e+03	1.71690e+00	3.33167e+02
2078	3.39198e+02	2.07800e+03	1.69065e+00	3.36333e+02
2097	3.42426e+02	2.09700e+03	1.65807e+00	3.39500e+02
2116	3.45599e+02	2.11600e+03	1.61587e+00	3.42667e+02
2135	3.48836e+02	2.13500e+03	1.56557e+00	3.45833e+02
2154	3.52000e+02	2.15400e+03	1.50531e+00	3.49000e+02
2173	3.55298e+02	2.17300e+03	1.43194e+00	3.52167e+02
2192	3.58665e+02	2.19200e+03	1.34607e+00	3.55333e+02
2211	3.61948e+02	2.21100e+03	1.24867e+00	3.58500e+02
2230	3.65159e+02	2.23000e+03	1.13973e+00	3.61667e+02
2249	3.68466e+02	2.24900e+03	1.02450e+00	3.64833e+02
2268	3.71844e+02	2.26800e+03	9.07849e-01	3.68000e+02
2287	3.74973e+02	2.28700e+03	7.86811e-01	3.71167e+02
2306	3.78192e+02	2.30600e+03	6.62827e-01	3.74333e+02
2325	3.81463e+02	2.32500e+03	5.46059e-01	3.77500e+02
2344	3.84680e+02	2.34400e+03	4.34596e-01	3.80667e+02
2363	3.87816e+02	2.36300e+03	3.34918e-01	3.83833e+02
2382	3.91184e+02	2.38200e+03	2.51627e-01	3.87000e+02
2401	3.94514e+02	2.40100e+03	1.84562e-01	3.90167e+02
2420	3.97878e+02	2.42000e+03	1.33439e-01	3.93333e+02
2439	4.00883e+02	2.43900e+03	9.51148e-02	3.96500e+02
2458	4.03683e+02	2.45800e+03	6.76892e-02	3.99667e+02
2477	4.06538e+02	2.47700e+03	4.82070e-02	4.02833e+02
2496	4.09547e+02	2.49600e+03	3.47401e-02	4.06000e+02
2515	4.12697e+02	2.51500e+03	2.48062e-02	4.09167e+02
2534	4.15881e+02	2.53400e+03	1.79648e-02	4.12333e+02
2553	4.19086e+02	2.55300e+03	1.28408e-02	4.15500e+02
2572	4.22244e+02	2.57200e+03	8.90923e-03	4.18667e+02
2591	4.25279e+02	2.59100e+03	5.82706e-03	4.21833e+02
2610	4.28439e+02	2.61000e+03	3.18320e-03	4.25000e+02
2629	4.31237e+02	2.62900e+03	1.55889e-03	4.28167e+02
2648	4.34285e+02	2.64800e+03	-6.78034e-05	4.31333e+02
2667	4.37420e+02	2.66700e+03	-1.00769e-03	4.34500e+02
2686	4.40549e+02	2.68600e+03	-1.35267e-03	4.37667e+02
2705	4.43559e+02	2.70500e+03	-1.64135e-03	4.40833e+02
2724	4.46641e+02	2.72400e+03	-1.65830e-03	4.44000e+02
2743	4.49762e+02	2.74300e+03	-1.74164e-03	4.47167e+02
2762	4.52923e+02	2.76200e+03	-1.82986e-03	4.50333e+02
2781	4.56054e+02	2.78100e+03	-2.16920e-03	4.53500e+02
2800	4.58918e+02	2.80000e+03	-2.06338e-03	4.56667e+02
2819	4.61944e+02	2.81900e+03	-2.22937e-03	4.59833e+02
2838	4.65056e+02	2.83800e+03	-2.36826e-03	4.63000e+02
2857	4.68150e+02	2.85700e+03	-2.44858e-03	4.66167e+02
2876	4.71240e+02	2.87600e+03	-2.34421e-03	4.69333e+02
2895	4.74335e+02	2.89500e+03	-2.54264e-03	4.72500e+02
2914	4.77424e+02	2.91400e+03	-2.30127e-03	4.75667e+02
2933	4.80554e+02	2.93300e+03	-2.43415e-03	4.78833e+02
2952	4.83676e+02	2.95200e+03	-2.38662e-03	4.82000e+02
2971	4.86805e+02	2.97100e+03	-2.65423e-03	4.85167e+02
2990	4.89938e+02	2.99000e+03	-2.81201e-03	4.88333e+02
3009	4.93064e+02	3.00900e+03	-2.47730e-03	4.91500e+02
3028	4.96193e+02	3.02800e+03	-2.53018e-03	4.94667e+02
3047	4.99337e+02	3.04700e+03	-2.58692e-03	4.97833e+02
3066	5.02470e+02	3.06600e+03	-2.66025e-03	5.01000e+02
3085	5.05650e+02	3.08500e+03	-2.76075e-03	5.04167e+02
3104	5.08730e+02	3.10400e+03	-2.71971e-03	5.07333e+02
3123	5.11801e+02	3.12300e+03	-2.96798e-03	5.10500e+02
3142	5.14856e+02	3.14200e+03	-2.78049e-03	5.13667e+02
3161	5.17945e+02	3.16100e+03	-2.66633e-03	5.16833e+02
3180	5.21050e+02	3.18000e+03	-2.80392e-03	5.20000e+02
3199	5.24198e+02	3.19900e+03	-2.94151e-03	5.23167e+02
3218	5.27393e+02	3.21800e+03	-2.88954e-03	5.26333e+02
3237	5.30544e+02	3.23700e+03	-2.96242e-03	5.29500e+02
3256	5.33709e+02	3.25600e+03	-2.91793e-03	5.32667e+02
3275	5.36805e+02	3.27500e+03	-3.07126e-03	5.35833e+02
3294	5.39905e+02	3.29400e+03	-3.03825e-03	5.39000e+02
3313	5.43009e+02	3.31300e+03	-3.02925e-03	5.42167e+02
3332	5.46125e+02	3.33200e+03	-2.88827e-03	5.45333e+02
3351	5.49204e+02	3.35100e+03	-3.14097e-03	5.48500e+02
3370	5.52319e+02	3.37000e+03	-2.99075e-03	5.51667e+02
3389	5.55418e+02	3.38900e+03	-2.99719e-03	5.54833e+02
3408	5.58568e+02	3.40800e+03	-3.16713e-03	5.58000e+02
3427	5.61672e+02	3.42700e+03	-3.16501e-03	5.61167e+02
3446	5.64824e+02	3.44600e+03	-3.18081e-03	5.64333e+02
3465	5.68016e+02	3.46500e+03	-3.34696e-03	5.67500e+02
3484	5.71229e+02	3.48400e+03	-3.28923e-03	5.70667e+02
3503	5.74458e+02	3.50300e+03	-3.26187e-03	5.73833e+02
3522	5.77647e+02	3.52200e+03	-3.48582e-03	5.77000e+02
3541	5.80856e+02	3.54100e+03	-3.24735e-03	5.80167e+02
3560	5.84026e+02	3.56000e+03	-3.45534e-03	5.83333e+02
3579	5.87165e+02	3.57900e+03	-3.57849e-03	5.86500e+02
3598	5.90271e+02	3.59800e+03	-3.67229e-03	5.89667e+02
3617	5.93406e+02	3.61700e+03	-3.49599e-03	5.92833e+02
3636	5.96503e+02	3.63600e+03	-3.50861e-03	5.96000e+02
3655	5.99643e+02	3.65500e+03	-3.58155e-03	5.99167e+02
3674	6.02779e+02	3.67400e+03	-3.72034e-03	6.02333e+02
3693	6.05954e+02	3.69300e+03	-3.71490e-03	6.05500e+02
3712	6.09131e+02	3.71200e+03	-3.63208e-03	6.08667e+02
3731	6.12285e+02	3.73100e+03	-3.64557e-03	6.11833e+02
3750	6.15431e+02	3.75000e+03	-3.88908e-03	6.15000e+02
3769	6.18585e+02	3.76900e+03	-3.90093e-03	6.18167e+02
3788	6.21761e+02	3.78800e+03	-3.82254e-03	6.21333e+02
3807	6.24903e+02	3.80700e+03	-3.74678e-03	6.24500e+02
3826	6.28034e+02	3.82600e+03	-3.95844e-03	6.27667e+02
3845	6.31193e+02	3.84500e+03	-3.89744e-03	6.30833e+02
3864	6.34358e+02	3.86400e+03	-3.99972e-03	6.34000e+02
3883	6.37521e+02	3.88300e+03	-3.97492e-03	6.37167e+02
3902	6.40694e+02	3.90200e+03	-4.04017e-03	6.40333e+02
3921	6.43845e+02	3.92100e+03	-4.05112e-03	6.43500e+02
3940	6.47000e+02	3.94000e+03	-4.30529e-03	6.46667e+02
3959	6.50196e+02	3.95900e+03	-4.00510e-03	6.49833e+02
3978	6.53394e+02	3.97800e+03	-4.34783e-03	6.53000e+02
3997	6.56565e+02	3.99700e+03	-4.47770e-03	6.56167e+02
4016	6.59703e+02	4.01600e+03	-4.60547e-03	6.59333e+02
4035	6.62849e+02	4.03500e+03	-4.53646e-03	6.62500e+02
4054	6.65995e+02	4.05400e+03	-4.63124e-03	6.65667e+02
4073	6.69143e+02	4.07300e+03	-4.55079e-03	6.68833e+02
4092	6.72308e+02	4.09200e+03	-4.62771e-03	6.72000e+02
4111	6.75459e+02	4.11100e+03	-4.49575e-03	6.75167e+02
4130	6.78587e+02	4.13000e+03	-4.78925e-03	6.78333e+02
4149	6.81722e+02	4.14900e+03	-4.91824e-03	6.81500e+02
4168	6.84898e+02	4.16800e+03	-4.69759e-03	6.84667e+02
4187	6.88077e+02	4.18700e+03	-4.73410e-03	6.87833e+02
4206	6.91247e+02	4.20600e+03	-4.37737e-03	6.91000e+02
4225	6.94434e+02	4.22500e+03	-4.51374e-03	6.94167e+02
4244	6.97055e+02	4.24400e+03	-4.49483e-03	6.97333e+02
4260	6.98426e+02	4.26000e+03	-4.60280e-03	7.00000e+02