File: Experiments/TUBS/tga_nonisotherm/tga_dynamic_n2_dyn20_piece_2mg_r1.txt
index	ts	t	weight	tr
[#]	[°C]	[s]	[mg]	[°C]
723	1.30155e+02	7.23000e+02	2.00073e+00	1.31000e+02
733	1.33472e+02	7.33000e+02	2.00061e+00	1.34333e+02
743	1.36790e+02	7.43000e+02	2.00049e+00	1.37667e+02
753	1.40118e+02	7.53000e+02	2.00041e+00	1.41000e+02
763	1.43458e+02	7.63000e+02	2.00039e+00	1.44333e+02
773	1.46799e+02	7.73000e+02	2.00024e+00	1.47667e+02
783	1.50154e+02	7.83000e+02	2.00015e+00	1.51000e+02
793	1.53487e+02	7.93000e+02	1.99999e+00	1.54333e+02
803	1.56842e+02	8.03000e+02	1.99967e+00	1.57667e+02
813	1.60187e+02	8.13000e+02	1.99963e+00	1.61000e+02
823	1.63525e+02	8.23000e+02	1.99951e+00	1.64333e+02
833	1.66895e+02	8.33000e+02	1.99940e+00	1.67667e+02
843	1.70261e+02	8.43000e+02	1.99915e+00	1.71000e+02
853	1.73606e+02	8.53000e+02	1.99891e+00	1.74333e+02
863	1.76971e+02	8.63000e+02	1.99843e+00	1.77667e+02
873	1.80328e+02	8.73000e+02	1.99770e+00	1.81000e+02
883	1.83704e+02	8.83000e+02	1.99678e+00	1.84333e+02
893	1.87065e+02	8.93000e+02	1.99558e+00	1.87667e+02
903	1.90437e+02	9.03000e+02	1.99414e+00	1.91000e+02
913	1.93812e+02	9.13000e+02	1.99239e+00	1.94333e+02
923	1.97192e+02	9.23000e+02	1.99017e+00	1.97667e+02
933	2.00566e+02	9.33000e+02	1.98784e+00	2.01000e+02
943	2.03942e+02	9.43000e+02	1.98545e+00	2.04333e+02
953	2.07321e+02	9.53000e+02	1.98280e+00	2.07667e+02
963	2.10687e+02	9.63000e+02	1.98036e+00	2.11000e+02
973	2.14066e+02	9.73000e+02	1.97789e+00	2.14333e+02
983	2.17443e+02	9.83000e+02	1.97544e+00	2.17667e+02
993	2.20816e+02	9.93000e+02	1.97298e+00	2.21000e+02
1003	2.24186e+02	1.00300e+03	1.97048e+00	2.24333e+02
1013	2.27554e+02	1.01300e+03	1.96778e+00	2.27667e+02
1023	2.30920e+02	1.02300e+03	1.96521e+00	2.31000e+02
1033	2.34290e+02	1.03300e+03	1.96266e+00	2.34333e+02
1043	2.37663e+02	1.04300e+03	1.96005e+00	2.37667e+02
1053	2.41033e+02	1.05300e+03	1.95755e+00	2.41000e+02
1063	2.44397e+02	1.06300e+03	1.95504e+00	2.44333e+02
1073	2.47755e+02	1.07300e+03	1.95244e+00	2.47667e+02
1083	2.51121e+02	1.08300e+03	1.94978e+00	2.51000e+02
1093	2.54482e+02	1.09300e+03	1.94721e+00	2.54333e+02
1103	2.57848e+02	1.10300e+03	1.94481e+00	2.57667e+02
1113	2.61203e+02	1.11300e+03	1.94227e+00	2.61000e+02
1123	2.64557e+02	1.12300e+03	1.93969e+00	2.64333e+02
1133	2.67922e+02	1.13300e+03	1.93719e+00	2.67667e+02
1143	2.71259e+02	1.14300e+03	1.93468e+00	2.71000e+02
1153	2.74624e+02	1.15300e+03	1.93193e+00	2.74333e+02
1163	2.77962e+02	1.16300e+03	1.92897e+00	2.77667e+02
1173	2.81319e+02	1.17300e+03	1.92577e+00	2.81000e+02
1183	2.84670e+02	1.18300e+03	1.92215e+00	2.84333e+02
1193	2.88022e+02	1.19300e+03	1.91817e+00	2.87667e+02
1203	2.91349e+02	1.20300e+03	1.91331e+00	2.91000e+02
1213	2.94705e+02	1.21300e+03	1.90820e+00	2.94333e+02
1223	2.98045e+02	1.22300e+03	1.90271e+00	2.97667e+02
1233	3.01381e+02	1.23300e+03	1.89656e+00	3.01000e+02
1243	3.04731e+02	1.24300e+03	1.88981e+00	3.04333e+02
1253	3.08059e+02	1.25300e+03	1.88253e+00	3.07667e+02
1263	3.11387e+02	1.26300e+03	1.87487e+00	3.11000e+02
1273	3.14735e+02	1.27300e+03	1.86684e+00	3.14333e+02
1283	3.18065e+02	1.28300e+03	1.85867e+00	3.17667e+02
1293	3.21393e+02	1.29300e+03	1.85012e+00	3.21000e+02
1303	3.24722e+02	1.30300e+03	1.84086e+00	3.24333e+02
1313	3.28070e+02	1.31300e+03	1.83032e+00	3.27667e+02
1323	3.31380e+02	1.32300e+03	1.81788e+00	3.31000e+02
1333	3.34710e+02	1.33300e+03	1.80290e+00	3.34333e+02
1343	3.38025e+02	1.34300e+03	1.78439e+00	3.37667e+02
1353	3.41330e+02	1.35300e+03	1.76129e+00	3.41000e+02
1363	3.44651e+02	1.36300e+03	1.73309e+00	3.44333e+02
1373	3.47964e+02	1.37300e+03	1.69803e+00	3.47667e+02
1383	3.51251e+02	1.38300e+03	1.65525e+00	3.51000e+02
1393	3.54541e+02	1.39300e+03	1.60264e+00	3.54333e+02
1403	3.57832e+02	1.40300e+03	1.53768e+00	3.57667e+02
1413	3.61115e+02	1.41300e+03	1.46002e+00	3.61000e+02
1423	3.64406e+02	1.42300e+03	1.37176e+00	3.64333e+02
1433	3.67698e+02	1.43300e+03	1.27217e+00	3.67667e+02
1443	3.70972e+02	1.44300e+03	1.16264e+00	3.71000e+02
1453	3.74277e+02	1.45300e+03	1.04471e+00	3.74333e+02
1463	3.77581e+02	1.46300e+03	9.21688e-01	3.77667e+02
1473	3.80888e+02	1.47300e+03	8.00510e-01	3.81000e+02
1483	3.84207e+02	1.48300e+03	6.81613e-01	3.84333e+02
1493	3.87542e+02	1.49300e+03	5.58830e-01	3.87667e+02
1503	3.90899e+02	1.50300e+03	4.39263e-01	3.91000e+02
1513	3.94254e+02	1.51300e+03	3.35185e-01	3.94333e+02
1523	3.97612e+02	1.52300e+03	2.49555e-01	3.97667e+02
1533	4.00979e+02	1.53300e+03	1.82195e-01	4.01000e+02
1543	4.04342e+02	1.54300e+03	1.30524e-01	4.04333e+02
1553	4.07688e+02	1.55300e+03	9.26503e-02	4.07667e+02
1563	4.11039e+02	1.56300e+03	6.55450e-02	4.11000e+02
1573	4.14369e+02	1.57300e+03	4.70592e-02	4.14333e+02
1583	4.17702e+02	1.58300e+03	3.42100e-02	4.17667e+02
1593	4.21033e+02	1.59300e+03	2.54726e-02	4.21000e+02
1603	4.24345e+02	1.60300e+03	1.92738e-02	4.24333e+02
1613	4.27662e+02	1.61300e+03	1.48667e-02	4.27667e+02
1623	4.30973e+02	1.62300e+03	1.16454e-02	4.31000e+02
1633	4.34291e+02	1.63300e+03	9.16281e-03	4.34333e+02
1643	4.37594e+02	1.64300e+03	7.46710e-03	4.37667e+02
1653	4.40900e+02	1.65300e+03	6.16604e-03	4.41000e+02
1663	4.44207e+02	1.66300e+03	5.26345e-03	4.44333e+02
1673	4.47507e+02	1.67300e+03	4.75034e-03	4.47667e+02
1683	4.50807e+02	1.68300e+03	4.50822e-03	4.51000e+02
1693	4.54105e+02	1.69300e+03	4.44973e-03	4.54333e+02
1703	4.57409e+02	1.70300e+03	4.39858e-03	4.57667e+02
1713	4.60710e+02	1.71300e+03	4.13127e-03	4.61000e+02
1723	4.64004e+02	1.72300e+03	3.99821e-03	4.64333e+02
1733	4.67290e+02	1.73300e+03	3.85035e-03	4.67667e+02
1743	4.70588e+02	1.74300e+03	3.86466e-03	4.71000e+02
1753	4.73882e+02	1.75300e+03	3.81716e-03	4.74333e+02
1763	4.77186e+02	1.76300e+03	3.62104e-03	4.77667e+02
1773	4.80490e+02	1.77300e+03	3.52421e-03	4.81000e+02
1783	4.83798e+02	1.78300e+03	3.40358e-03	4.84333e+02
1793	4.87092e+02	1.79300e+03	3.60573e-03	4.87667e+02
1803	4.90397e+02	1.80300e+03	3.48124e-03	4.91000e+02
1813	4.93701e+02	1.81300e+03	3.50400e-03	4.94333e+02
1823	4.97006e+02	1.82300e+03	3.45942e-03	4.97667e+02
1833	5.00306e+02	1.83300e+03	3.38539e-03	5.01000e+02
1843	5.03604e+02	1.84300e+03	3.29551e-03	5.04333e+02
1853	5.06907e+02	1.85300e+03	3.32004e-03	5.07667e+02
1863	5.10205e+02	1.86300e+03	3.20749e-03	5.11000e+02
1873	5.13514e+02	1.87300e+03	3.12160e-03	5.14333e+02
1883	5.16809e+02	1.88300e+03	3.01324e-03	5.17667e+02
1893	5.20118e+02	1.89300e+03	3.07613e-03	5.21000e+02
1903	5.23431e+02	1.90300e+03	3.11400e-03	5.24333e+02
1913	5.26740e+02	1.91300e+03	3.06696e-03	5.27667e+02
1923	5.30065e+02	1.92300e+03	2.97679e-03	5.31000e+02
1933	5.33369e+02	1.93300e+03	2.94810e-03	5.34333e+02
1943	5.36683e+02	1.94300e+03	2.99827e-03	5.37667e+02
1953	5.40002e+02	1.95300e+03	2.90285e-03	5.41000e+02
1963	5.43325e+02	1.96300e+03	3.05158e-03	5.44333e+02
1973	5.46633e+02	1.97300e+03	2.96662e-03	5.47667e+02
1983	5.49947e+02	1.98300e+03	2.86420e-03	5.51000e+02
1993	5.53276e+02	1.99300e+03	2.79755e-03	5.54333e+02
2003	5.56579e+02	2.00300e+03	2.75029e-03	5.57667e+02
2013	5.59896e+02	2.01300e+03	2.78220e-03	5.61000e+02
2023	5.63216e+02	2.02300e+03	2.68366e-03	5.64333e+02
2033	5.66526e+02	2.03300e+03	2.80853e-03	5.67667e+02
2043	5.69857e+02	2.04300e+03	2.74225e-03	5.71000e+02
2053	5.73165e+02	2.05300e+03	2.76117e-03	5.74333e+02
2063	5.76501e+02	2.06300e+03	2.66635e-03	5.77667e+02
2073	5.79802e+02	2.07300e+03	2.78646e-03	5.81000e+02
2083	5.83140e+02	2.08300e+03	2.66370e-03	5.84333e+02
2093	5.86464e+02	2.09300e+03	2.62985e-03	5.87667e+02
2103	5.89787e+02	2.10300e+03	2.62342e-03	5.91000e+02
2113	5.93099e+02	2.11300e+03	2.64490e-03	5.94333e+02
2123	5.96430e+02	2.12300e+03	2.58166e-03	5.97667e+02
2133	5.99760e+02	2.13300e+03	2.56721e-03	6.01000e+02
2143	6.03089e+02	2.14300e+03	2.56828e-03	6.04333e+02
2153	6.06412e+02	2.15300e+03	2.43860e-03	6.07667e+02
2163	6.09729e+02	2.16300e+03	2.51281e-03	6.11000e+02
2173	6.13053e+02	2.17300e+03	2.72211e-03	6.14333e+02
2183	6.16385e+02	2.18300e+03	2.63256e-03	6.17667e+02
2193	6.19717e+02	2.19300e+03	2.40560e-03	6.21000e+02
2203	6.23041e+02	2.20300e+03	2.61230e-03	6.24333e+02
2213	6.26374e+02	2.21300e+03	2.61692e-03	6.27667e+02
2223	6.29700e+02	2.22300e+03	2.61335e-03	6.31000e+02
2233	6.33037e+02	2.23300e+03	2.66762e-03	6.34333e+02
2243	6.36373e+02	2.24300e+03	2.58155e-03	6.37667e+02
2253	6.39696e+02	2.25300e+03	2.56597e-03	6.41000e+02
2263	6.43027e+02	2.26300e+03	2.37699e-03	6.44333e+02
2273	6.46360e+02	2.27300e+03	2.37856e-03	6.47667e+02
2283	6.49679e+02	2.28300e+03	2.41306e-03	6.51000e+02
2293	6.53007e+02	2.29300e+03	2.45276e-03	6.54333e+02
2303	6.56335e+02	2.30300e+03	2.47963e-03	6.57667e+02
2313	6.59675e+02	2.31300e+03	2.55091e-03	6.61000e+02
2323	6.62991e+02	2.32300e+03	2.56401e-03	6.64333e+02
2333	6.66323e+02	2.33300e+03	2.44585e-03	6.67667e+02
2343	6.69645e+02	2.34300e+03	2.34155e-03	6.71000e+02
2353	6.72968e+02	2.35300e+03	2.37508e-03	6.74333e+02
2363	6.76294e+02	2.36300e+03	2.39345e-03	6.77667e+02
2373	6.79625e+02	2.37300e+03	2.39900e-03	6.81000e+02
2383	6.82944e+02	2.38300e+03	2.42913e-03	6.84333e+02
2393	6.86273e+02	2.39300e+03	2.33007e-03	6.87667e+02
2403	6.89602e+02	2.40300e+03	2.36579e-03	6.91000e+02
2413	6.91797e+02	2.41300e+03	2.44397e-03	6.94333e+02
2423	6.93645e+02	2.42300e+03	2.31034e-03	6.97667e+02
2430	6.94636e+02	2.43000e+03	2.32519e-03	7.00000e+02