File: Experiments/TUBS/tga_nonisotherm/tga_dynamic_n2_dyn30_piece_2mg_r1.txt
index	ts	t	weight	tr
[#]	[°C]	[s]	[mg]	[°C]
683	1.30937e+02	6.83000e+02	1.99419e+00	1.31500e+02
689	1.33922e+02	6.89000e+02	1.99412e+00	1.34500e+02
695	1.36915e+02	6.95000e+02	1.99412e+00	1.37500e+02
701	1.39964e+02	7.01000e+02	1.99408e+00	1.40500e+02
707	1.42970e+02	7.07000e+02	1.99389e+00	1.43500e+02
713	1.45983e+02	7.13000e+02	1.99379e+00	1.46500e+02
719	1.48989e+02	7.19000e+02	1.99373e+00	1.49500e+02
725	1.51996e+02	7.25000e+02	1.99361e+00	1.52500e+02
731	1.54977e+02	7.31000e+02	1.99342e+00	1.55500e+02
737	1.57985e+02	7.37000e+02	1.99327e+00	1.58500e+02
743	1.60997e+02	7.43000e+02	1.99321e+00	1.61500e+02
749	1.64010e+02	7.49000e+02	1.99310e+00	1.64500e+02
755	1.67032e+02	7.55000e+02	1.99289e+00	1.67500e+02
761	1.70064e+02	7.61000e+02	1.99261e+00	1.70500e+02
767	1.73062e+02	7.67000e+02	1.99225e+00	1.73500e+02
773	1.76064e+02	7.73000e+02	1.99211e+00	1.76500e+02
779	1.79087e+02	7.79000e+02	1.99191e+00	1.79500e+02
785	1.82144e+02	7.85000e+02	1.99165e+00	1.82500e+02
791	1.85236e+02	7.91000e+02	1.99138e+00	1.85500e+02
797	1.88383e+02	7.97000e+02	1.99079e+00	1.88500e+02
803	1.91502e+02	8.03000e+02	1.99013e+00	1.91500e+02
809	1.94570e+02	8.09000e+02	1.98941e+00	1.94500e+02
815	1.97625e+02	8.15000e+02	1.98844e+00	1.97500e+02
821	2.00672e+02	8.21000e+02	1.98738e+00	2.00500e+02
827	2.03760e+02	8.27000e+02	1.98626e+00	2.03500e+02
833	2.06860e+02	8.33000e+02	1.98489e+00	2.06500e+02
839	2.09934e+02	8.39000e+02	1.98346e+00	2.09500e+02
845	2.12999e+02	8.45000e+02	1.98186e+00	2.12500e+02
851	2.16090e+02	8.51000e+02	1.98030e+00	2.15500e+02
857	2.19148e+02	8.57000e+02	1.97881e+00	2.18500e+02
863	2.22232e+02	8.63000e+02	1.97720e+00	2.21500e+02
869	2.25293e+02	8.69000e+02	1.97567e+00	2.24500e+02
875	2.28354e+02	8.75000e+02	1.97408e+00	2.27500e+02
881	2.31414e+02	8.81000e+02	1.97243e+00	2.30500e+02
887	2.34454e+02	8.87000e+02	1.97061e+00	2.33500e+02
893	2.37519e+02	8.93000e+02	1.96875e+00	2.36500e+02
899	2.40570e+02	8.99000e+02	1.96691e+00	2.39500e+02
905	2.43617e+02	9.05000e+02	1.96498e+00	2.42500e+02
911	2.46648e+02	9.11000e+02	1.96287e+00	2.45500e+02
917	2.49693e+02	9.17000e+02	1.96080e+00	2.48500e+02
923	2.52742e+02	9.23000e+02	1.95871e+00	2.51500e+02
929	2.55793e+02	9.29000e+02	1.95660e+00	2.54500e+02
935	2.58831e+02	9.35000e+02	1.95443e+00	2.57500e+02
941	2.61900e+02	9.41000e+02	1.95217e+00	2.60500e+02
947	2.64936e+02	9.47000e+02	1.94991e+00	2.63500e+02
953	2.67985e+02	9.53000e+02	1.94769e+00	2.66500e+02
959	2.71005e+02	9.59000e+02	1.94535e+00	2.69500e+02
965	2.74036e+02	9.65000e+02	1.94289e+00	2.72500e+02
971	2.77062e+02	9.71000e+02	1.94035e+00	2.75500e+02
977	2.80058e+02	9.77000e+02	1.93765e+00	2.78500e+02
983	2.83071e+02	9.83000e+02	1.93488e+00	2.81500e+02
989	2.86082e+02	9.89000e+02	1.93186e+00	2.84500e+02
995	2.89082e+02	9.95000e+02	1.92854e+00	2.87500e+02
1001	2.92093e+02	1.00100e+03	1.92507e+00	2.90500e+02
1007	2.95078e+02	1.00700e+03	1.92131e+00	2.93500e+02
1013	2.98057e+02	1.01300e+03	1.91748e+00	2.96500e+02
1019	3.01064e+02	1.01900e+03	1.91323e+00	2.99500e+02
1025	3.04043e+02	1.02500e+03	1.90837e+00	3.02500e+02
1031	3.07104e+02	1.03100e+03	1.90318e+00	3.05500e+02
1037	3.10092e+02	1.03700e+03	1.89746e+00	3.08500e+02
1043	3.13157e+02	1.04300e+03	1.89112e+00	3.11500e+02
1049	3.16089e+02	1.04900e+03	1.88350e+00	3.14500e+02
1055	3.19010e+02	1.05500e+03	1.87469e+00	3.17500e+02
1061	3.21914e+02	1.06100e+03	1.86563e+00	3.20500e+02
1067	3.24881e+02	1.06700e+03	1.85688e+00	3.23500e+02
1073	3.27879e+02	1.07300e+03	1.84865e+00	3.26500e+02
1079	3.30918e+02	1.07900e+03	1.84035e+00	3.29500e+02
1085	3.33951e+02	1.08500e+03	1.83151e+00	3.32500e+02
1091	3.36946e+02	1.09100e+03	1.82186e+00	3.35500e+02
1097	3.40005e+02	1.09700e+03	1.81084e+00	3.38500e+02
1103	3.43071e+02	1.10300e+03	1.79815e+00	3.41500e+02
1109	3.46079e+02	1.10900e+03	1.78292e+00	3.44500e+02
1115	3.49094e+02	1.11500e+03	1.76495e+00	3.47500e+02
1121	3.52046e+02	1.12100e+03	1.74297e+00	3.50500e+02
1127	3.55010e+02	1.12700e+03	1.71667e+00	3.53500e+02
1133	3.57973e+02	1.13300e+03	1.68477e+00	3.56500e+02
1139	3.60937e+02	1.13900e+03	1.64642e+00	3.59500e+02
1145	3.63866e+02	1.14500e+03	1.59799e+00	3.62500e+02
1151	3.66794e+02	1.15100e+03	1.53882e+00	3.65500e+02
1157	3.69732e+02	1.15700e+03	1.46822e+00	3.68500e+02
1163	3.72672e+02	1.16300e+03	1.38893e+00	3.71500e+02
1169	3.75598e+02	1.16900e+03	1.29983e+00	3.74500e+02
1175	3.78557e+02	1.17500e+03	1.20454e+00	3.77500e+02
1181	3.81539e+02	1.18100e+03	1.10421e+00	3.80500e+02
1187	3.84521e+02	1.18700e+03	1.00160e+00	3.83500e+02
1193	3.87530e+02	1.19300e+03	8.97818e-01	3.86500e+02
1199	3.90505e+02	1.19900e+03	7.93846e-01	3.89500e+02
1205	3.93504e+02	1.20500e+03	6.90951e-01	3.92500e+02
1211	3.96500e+02	1.21100e+03	5.88724e-01	3.95500e+02
1217	3.99520e+02	1.21700e+03	4.87405e-01	3.98500e+02
1223	4.02568e+02	1.22300e+03	3.91679e-01	4.01500e+02
1229	4.05621e+02	1.22900e+03	3.07262e-01	4.04500e+02
1235	4.08709e+02	1.23500e+03	2.35486e-01	4.07500e+02
1241	4.11832e+02	1.24100e+03	1.78967e-01	4.10500e+02
1247	4.14856e+02	1.24700e+03	1.34767e-01	4.13500e+02
1253	4.17868e+02	1.25300e+03	1.02313e-01	4.16500e+02
1259	4.20881e+02	1.25900e+03	7.80500e-02	4.19500e+02
1265	4.23900e+02	1.26500e+03	6.12409e-02	4.22500e+02
1271	4.26885e+02	1.27100e+03	4.89079e-02	4.25500e+02
1277	4.29863e+02	1.27700e+03	4.01268e-02	4.28500e+02
1283	4.32843e+02	1.28300e+03	3.36313e-02	4.31500e+02
1289	4.35814e+02	1.28900e+03	2.90240e-02	4.34500e+02
1295	4.38785e+02	1.29500e+03	2.52936e-02	4.37500e+02
1301	4.41783e+02	1.30100e+03	2.22539e-02	4.40500e+02
1307	4.44806e+02	1.30700e+03	1.99291e-02	4.43500e+02
1313	4.47796e+02	1.31300e+03	1.82384e-02	4.46500e+02
1319	4.50807e+02	1.31900e+03	1.69304e-02	4.49500e+02
1325	4.53787e+02	1.32500e+03	1.60922e-02	4.52500e+02
1331	4.56757e+02	1.33100e+03	1.56332e-02	4.55500e+02
1337	4.59704e+02	1.33700e+03	1.54060e-02	4.58500e+02
1343	4.62639e+02	1.34300e+03	1.52375e-02	4.61500e+02
1349	4.65597e+02	1.34900e+03	1.49900e-02	4.64500e+02
1355	4.68500e+02	1.35500e+03	1.48093e-02	4.67500e+02
1361	4.71426e+02	1.36100e+03	1.46492e-02	4.70500e+02
1367	4.74354e+02	1.36700e+03	1.45144e-02	4.73500e+02
1373	4.77292e+02	1.37300e+03	1.43428e-02	4.76500e+02
1379	4.80232e+02	1.37900e+03	1.41494e-02	4.79500e+02
1385	4.83160e+02	1.38500e+03	1.40230e-02	4.82500e+02
1391	4.86082e+02	1.39100e+03	1.39242e-02	4.85500e+02
1397	4.89003e+02	1.39700e+03	1.38362e-02	4.88500e+02
1403	4.91923e+02	1.40300e+03	1.36862e-02	4.91500e+02
1409	4.94843e+02	1.40900e+03	1.34451e-02	4.94500e+02
1415	4.97770e+02	1.41500e+03	1.33044e-02	4.97500e+02
1421	5.00711e+02	1.42100e+03	1.31231e-02	5.00500e+02
1427	5.03658e+02	1.42700e+03	1.30389e-02	5.03500e+02
1433	5.06578e+02	1.43300e+03	1.30505e-02	5.06500e+02
1439	5.09516e+02	1.43900e+03	1.30147e-02	5.09500e+02
1445	5.12476e+02	1.44500e+03	1.27614e-02	5.12500e+02
1451	5.15417e+02	1.45100e+03	1.23710e-02	5.15500e+02
1457	5.18367e+02	1.45700e+03	1.24691e-02	5.18500e+02
1463	5.21321e+02	1.46300e+03	1.26994e-02	5.21500e+02
1469	5.24264e+02	1.46900e+03	1.25443e-02	5.24500e+02
1475	5.27227e+02	1.47500e+03	1.24173e-02	5.27500e+02
1481	5.30155e+02	1.48100e+03	1.23854e-02	5.30500e+02
1487	5.33100e+02	1.48700e+03	1.23509e-02	5.33500e+02
1493	5.36028e+02	1.49300e+03	1.22755e-02	5.36500e+02
1499	5.38984e+02	1.49900e+03	1.20749e-02	5.39500e+02
1505	5.41925e+02	1.50500e+03	1.19675e-02	5.42500e+02
1511	5.44861e+02	1.51100e+03	1.19321e-02	5.45500e+02
1517	5.47814e+02	1.51700e+03	1.18957e-02	5.48500e+02
1523	5.50750e+02	1.52300e+03	1.18018e-02	5.51500e+02
1529	5.53717e+02	1.52900e+03	1.15984e-02	5.54500e+02
1535	5.56669e+02	1.53500e+03	1.13454e-02	5.57500e+02
1541	5.59621e+02	1.54100e+03	1.16018e-02	5.60500e+02
1547	5.62578e+02	1.54700e+03	1.16994e-02	5.63500e+02
1553	5.65555e+02	1.55300e+03	1.14855e-02	5.66500e+02
1559	5.68523e+02	1.55900e+03	1.13931e-02	5.69500e+02
1565	5.71499e+02	1.56500e+03	1.12698e-02	5.72500e+02
1571	5.74466e+02	1.57100e+03	1.11993e-02	5.75500e+02
1577	5.77440e+02	1.57700e+03	1.12514e-02	5.78500e+02
1583	5.80421e+02	1.58300e+03	1.13423e-02	5.81500e+02
1589	5.83398e+02	1.58900e+03	1.13273e-02	5.84500e+02
1595	5.86374e+02	1.59500e+03	1.12893e-02	5.87500e+02
1601	5.89375e+02	1.60100e+03	1.12427e-02	5.90500e+02
1607	5.92397e+02	1.60700e+03	1.12013e-02	5.93500e+02
1613	5.95404e+02	1.61300e+03	1.11298e-02	5.96500e+02
1619	5.98394e+02	1.61900e+03	1.10466e-02	5.99500e+02
1625	6.01422e+02	1.62500e+03	1.08935e-02	6.02500e+02
1631	6.04452e+02	1.63100e+03	1.07745e-02	6.05500e+02
1637	6.07504e+02	1.63700e+03	1.08842e-02	6.08500e+02
1643	6.10600e+02	1.64300e+03	1.10046e-02	6.11500e+02
1649	6.14466e+02	1.64900e+03	1.08709e-02	6.14500e+02
1655	6.17864e+02	1.65500e+03	1.09021e-02	6.17500e+02
1661	6.20759e+02	1.66100e+03	1.10196e-02	6.20500e+02
1667	6.23718e+02	1.66700e+03	1.09593e-02	6.23500e+02
1673	6.26605e+02	1.67300e+03	1.09038e-02	6.26500e+02
1679	6.29585e+02	1.67900e+03	1.09663e-02	6.29500e+02
1685	6.32571e+02	1.68500e+03	1.08789e-02	6.32500e+02
1691	6.35545e+02	1.69100e+03	1.07823e-02	6.35500e+02
1697	6.38487e+02	1.69700e+03	1.08261e-02	6.38500e+02
1703	6.41446e+02	1.70300e+03	1.08434e-02	6.41500e+02
1709	6.44400e+02	1.70900e+03	1.09865e-02	6.44500e+02
1715	6.47338e+02	1.71500e+03	1.09746e-02	6.47500e+02
1721	6.50268e+02	1.72100e+03	1.07246e-02	6.50500e+02
1727	6.53201e+02	1.72700e+03	1.05746e-02	6.53500e+02
1733	6.56139e+02	1.73300e+03	1.11886e-02	6.56500e+02
1739	6.59082e+02	1.73900e+03	1.12897e-02	6.59500e+02
1745	6.62042e+02	1.74500e+03	1.08689e-02	6.62500e+02
1751	6.64978e+02	1.75100e+03	1.07461e-02	6.65500e+02
1757	6.67931e+02	1.75700e+03	1.07307e-02	6.68500e+02
1763	6.70888e+02	1.76300e+03	1.07156e-02	6.71500e+02
1769	6.73860e+02	1.76900e+03	1.08064e-02	6.74500e+02
1775	6.76838e+02	1.77500e+03	1.08294e-02	6.77500e+02
1781	6.79805e+02	1.78100e+03	1.07012e-02	6.80500e+02
1787	6.82740e+02	1.78700e+03	1.04161e-02	6.83500e+02
1793	6.85707e+02	1.79300e+03	1.05157e-02	6.86500e+02
1799	6.87570e+02	1.79900e+03	1.11165e-02	6.89500e+02
1805	6.89544e+02	1.80500e+03	1.10957e-02	6.92500e+02
1811	6.91182e+02	1.81100e+03	1.08063e-02	6.95500e+02
1817	6.92573e+02	1.81700e+03	1.06141e-02	6.98500e+02
1820	6.93182e+02	1.82000e+03	1.06387e-02	7.00000e+02