File: Experiments/TUBS/tga_nonisotherm/tga_dynamic_n2_dyn45_powder_3mg_r3.txt
index	ts	t	weight	tr
[#]	[°C]	[s]	[mg]	[°C]
657	1.32728e+02	6.57000e+02	2.95918e+00	1.32752e+02
661	1.35800e+02	6.61000e+02	2.95891e+00	1.35752e+02
665	1.38867e+02	6.65000e+02	2.95853e+00	1.38752e+02
669	1.41932e+02	6.69000e+02	2.95806e+00	1.41752e+02
673	1.44995e+02	6.73000e+02	2.95759e+00	1.44752e+02
677	1.48068e+02	6.77000e+02	2.95712e+00	1.47752e+02
681	1.51120e+02	6.81000e+02	2.95655e+00	1.50752e+02
685	1.54174e+02	6.85000e+02	2.95583e+00	1.53753e+02
689	1.57240e+02	6.89000e+02	2.95495e+00	1.56753e+02
693	1.60291e+02	6.93000e+02	2.95394e+00	1.59753e+02
697	1.63356e+02	6.97000e+02	2.95302e+00	1.62753e+02
701	1.66414e+02	7.01000e+02	2.95173e+00	1.65753e+02
705	1.69467e+02	7.05000e+02	2.94960e+00	1.68753e+02
709	1.72529e+02	7.09000e+02	2.94739e+00	1.71753e+02
713	1.75570e+02	7.13000e+02	2.94536e+00	1.74753e+02
717	1.78621e+02	7.17000e+02	2.94270e+00	1.77754e+02
721	1.81669e+02	7.21000e+02	2.93939e+00	1.80754e+02
725	1.84725e+02	7.25000e+02	2.93532e+00	1.83754e+02
729	1.87781e+02	7.29000e+02	2.93020e+00	1.86754e+02
733	1.90821e+02	7.33000e+02	2.92388e+00	1.89754e+02
737	1.93864e+02	7.37000e+02	2.91631e+00	1.92754e+02
741	1.96935e+02	7.41000e+02	2.90784e+00	1.95754e+02
745	2.00011e+02	7.45000e+02	2.89900e+00	1.98754e+02
749	2.03061e+02	7.49000e+02	2.89009e+00	2.01755e+02
753	2.06137e+02	7.53000e+02	2.88123e+00	2.04755e+02
757	2.09203e+02	7.57000e+02	2.87344e+00	2.07755e+02
761	2.12272e+02	7.61000e+02	2.86692e+00	2.10755e+02
765	2.15335e+02	7.65000e+02	2.86103e+00	2.13755e+02
769	2.18393e+02	7.69000e+02	2.85622e+00	2.16755e+02
773	2.21466e+02	7.73000e+02	2.85259e+00	2.19755e+02
777	2.24533e+02	7.77000e+02	2.84975e+00	2.22755e+02
781	2.27596e+02	7.81000e+02	2.84740e+00	2.25756e+02
785	2.30645e+02	7.85000e+02	2.84523e+00	2.28756e+02
789	2.33689e+02	7.89000e+02	2.84305e+00	2.31756e+02
793	2.36715e+02	7.93000e+02	2.84088e+00	2.34756e+02
797	2.39781e+02	7.97000e+02	2.83873e+00	2.37756e+02
801	2.42864e+02	8.01000e+02	2.83655e+00	2.40756e+02
805	2.45951e+02	8.05000e+02	2.83448e+00	2.43756e+02
809	2.49028e+02	8.09000e+02	2.83248e+00	2.46756e+02
813	2.52109e+02	8.13000e+02	2.83055e+00	2.49757e+02
817	2.55141e+02	8.17000e+02	2.82867e+00	2.52757e+02
821	2.58167e+02	8.21000e+02	2.82683e+00	2.55757e+02
825	2.61190e+02	8.25000e+02	2.82513e+00	2.58757e+02
829	2.64210e+02	8.29000e+02	2.82348e+00	2.61757e+02
833	2.67251e+02	8.33000e+02	2.82194e+00	2.64757e+02
837	2.70298e+02	8.37000e+02	2.82065e+00	2.67757e+02
841	2.73265e+02	8.41000e+02	2.81918e+00	2.70757e+02
845	2.76246e+02	8.45000e+02	2.81724e+00	2.73758e+02
849	2.79250e+02	8.49000e+02	2.81512e+00	2.76758e+02
853	2.82265e+02	8.53000e+02	2.81304e+00	2.79758e+02
857	2.85290e+02	8.57000e+02	2.81066e+00	2.82758e+02
861	2.88323e+02	8.61000e+02	2.80777e+00	2.85758e+02
865	2.91393e+02	8.65000e+02	2.80426e+00	2.88758e+02
869	2.94439e+02	8.69000e+02	2.79988e+00	2.91758e+02
873	2.97523e+02	8.73000e+02	2.79461e+00	2.94758e+02
877	3.00578e+02	8.77000e+02	2.78842e+00	2.97759e+02
881	3.03642e+02	8.81000e+02	2.78114e+00	3.00759e+02
885	3.06707e+02	8.85000e+02	2.77284e+00	3.03759e+02
889	3.09819e+02	8.89000e+02	2.76356e+00	3.06759e+02
893	3.12912e+02	8.93000e+02	2.75328e+00	3.09759e+02
897	3.16057e+02	8.97000e+02	2.74199e+00	3.12759e+02
901	3.19185e+02	9.01000e+02	2.72991e+00	3.15759e+02
905	3.22275e+02	9.05000e+02	2.71739e+00	3.18759e+02
909	3.25334e+02	9.09000e+02	2.70467e+00	3.21759e+02
913	3.28386e+02	9.13000e+02	2.69167e+00	3.24760e+02
917	3.31442e+02	9.17000e+02	2.67794e+00	3.27760e+02
921	3.34410e+02	9.21000e+02	2.66308e+00	3.30760e+02
925	3.37485e+02	9.25000e+02	2.64649e+00	3.33760e+02
929	3.40497e+02	9.29000e+02	2.62738e+00	3.36760e+02
933	3.43492e+02	9.33000e+02	2.60472e+00	3.39760e+02
937	3.46473e+02	9.37000e+02	2.57773e+00	3.42760e+02
941	3.49480e+02	9.41000e+02	2.54555e+00	3.45760e+02
945	3.52516e+02	9.45000e+02	2.50718e+00	3.48761e+02
949	3.55529e+02	9.49000e+02	2.46192e+00	3.51761e+02
953	3.58524e+02	9.53000e+02	2.40922e+00	3.54761e+02
957	3.61516e+02	9.57000e+02	2.34848e+00	3.57761e+02
961	3.64551e+02	9.61000e+02	2.27939e+00	3.60761e+02
965	3.67570e+02	9.65000e+02	2.20223e+00	3.63761e+02
969	3.70641e+02	9.69000e+02	2.11730e+00	3.66761e+02
973	3.73658e+02	9.73000e+02	2.02537e+00	3.69761e+02
977	3.76638e+02	9.77000e+02	1.92672e+00	3.72762e+02
981	3.79667e+02	9.81000e+02	1.82146e+00	3.75762e+02
985	3.82646e+02	9.85000e+02	1.70935e+00	3.78762e+02
989	3.85565e+02	9.89000e+02	1.59117e+00	3.81762e+02
993	3.88582e+02	9.93000e+02	1.46789e+00	3.84762e+02
997	3.91578e+02	9.97000e+02	1.34123e+00	3.87762e+02
1001	3.94571e+02	1.00100e+03	1.21377e+00	3.90762e+02
1005	3.97599e+02	1.00500e+03	1.08742e+00	3.93762e+02
1009	4.00579e+02	1.00900e+03	9.63186e-01	3.96763e+02
1013	4.03615e+02	1.01300e+03	8.41268e-01	3.99763e+02
1017	4.06659e+02	1.01700e+03	7.23573e-01	4.02763e+02
1021	4.09695e+02	1.02100e+03	6.13080e-01	4.05763e+02
1025	4.12763e+02	1.02500e+03	5.12223e-01	4.08763e+02
1029	4.15880e+02	1.02900e+03	4.22499e-01	4.11763e+02
1033	4.19062e+02	1.03300e+03	3.46261e-01	4.14763e+02
1037	4.22113e+02	1.03700e+03	2.83597e-01	4.17763e+02
1041	4.25175e+02	1.04100e+03	2.31329e-01	4.20764e+02
1045	4.28121e+02	1.04500e+03	1.89235e-01	4.23764e+02
1049	4.31116e+02	1.04900e+03	1.56260e-01	4.26764e+02
1053	4.34141e+02	1.05300e+03	1.31233e-01	4.29764e+02
1057	4.37161e+02	1.05700e+03	1.12773e-01	4.32764e+02
1061	4.40198e+02	1.06100e+03	9.95951e-02	4.35764e+02
1065	4.43192e+02	1.06500e+03	9.03644e-02	4.38764e+02
1069	4.46138e+02	1.06900e+03	8.39648e-02	4.41764e+02
1073	4.49102e+02	1.07300e+03	7.96373e-02	4.44765e+02
1077	4.52198e+02	1.07700e+03	7.66694e-02	4.47765e+02
1081	4.55224e+02	1.08100e+03	7.44892e-02	4.50765e+02
1085	4.58272e+02	1.08500e+03	7.29712e-02	4.53765e+02
1089	4.61136e+02	1.08900e+03	7.20541e-02	4.56765e+02
1093	4.63979e+02	1.09300e+03	7.14712e-02	4.59765e+02
1097	4.66810e+02	1.09700e+03	7.10119e-02	4.62765e+02
1101	4.69703e+02	1.10100e+03	7.06300e-02	4.65765e+02
1105	4.72607e+02	1.10500e+03	7.03245e-02	4.68766e+02
1109	4.75507e+02	1.10900e+03	7.02789e-02	4.71766e+02
1113	4.78434e+02	1.11300e+03	7.02800e-02	4.74766e+02
1117	4.81387e+02	1.11700e+03	7.03116e-02	4.77766e+02
1121	4.84351e+02	1.12100e+03	7.03896e-02	4.80766e+02
1125	4.87293e+02	1.12500e+03	7.02893e-02	4.83766e+02
1129	4.90233e+02	1.12900e+03	7.00362e-02	4.86766e+02
1133	4.93176e+02	1.13300e+03	6.99210e-02	4.89766e+02
1137	4.96194e+02	1.13700e+03	6.99177e-02	4.92766e+02
1141	4.99073e+02	1.14100e+03	6.97194e-02	4.95767e+02
1145	5.01997e+02	1.14500e+03	6.94753e-02	4.98767e+02
1149	5.04902e+02	1.14900e+03	6.94389e-02	5.01767e+02
1153	5.07812e+02	1.15300e+03	6.95323e-02	5.04767e+02
1157	5.10716e+02	1.15700e+03	6.95405e-02	5.07767e+02
1161	5.13621e+02	1.16100e+03	6.94332e-02	5.10767e+02
1165	5.16669e+02	1.16500e+03	6.92554e-02	5.13767e+02
1169	5.19622e+02	1.16900e+03	6.91684e-02	5.16767e+02
1173	5.22579e+02	1.17300e+03	6.92032e-02	5.19768e+02
1177	5.25515e+02	1.17700e+03	6.92401e-02	5.22768e+02
1181	5.28588e+02	1.18100e+03	6.92581e-02	5.25768e+02
1185	5.31469e+02	1.18500e+03	6.92678e-02	5.28768e+02
1189	5.34990e+02	1.18900e+03	6.92530e-02	5.31768e+02
1193	5.37791e+02	1.19300e+03	6.91561e-02	5.34768e+02
1197	5.40336e+02	1.19700e+03	6.90448e-02	5.37768e+02
1201	5.43202e+02	1.20100e+03	6.89956e-02	5.40768e+02
1205	5.46133e+02	1.20500e+03	6.89488e-02	5.43769e+02
1209	5.49064e+02	1.20900e+03	6.89353e-02	5.46769e+02
1213	5.51987e+02	1.21300e+03	6.90607e-02	5.49769e+02
1217	5.54873e+02	1.21700e+03	6.91393e-02	5.52769e+02
1221	5.57810e+02	1.22100e+03	6.90207e-02	5.55769e+02
1225	5.60730e+02	1.22500e+03	6.88842e-02	5.58769e+02
1229	5.63737e+02	1.22900e+03	6.88594e-02	5.61769e+02
1233	5.66713e+02	1.23300e+03	6.89210e-02	5.64769e+02
1237	5.69761e+02	1.23700e+03	6.90273e-02	5.67770e+02
1241	5.72878e+02	1.24100e+03	6.90015e-02	5.70770e+02
1245	5.75866e+02	1.24500e+03	6.89165e-02	5.73770e+02
1249	5.78844e+02	1.24900e+03	6.87958e-02	5.76770e+02
1253	5.81817e+02	1.25300e+03	6.87012e-02	5.79770e+02
1257	5.84913e+02	1.25700e+03	6.86133e-02	5.82770e+02
1261	5.87835e+02	1.26100e+03	6.85589e-02	5.85770e+02
1265	5.90864e+02	1.26500e+03	6.84946e-02	5.88770e+02
1269	5.94801e+02	1.26900e+03	6.85225e-02	5.91771e+02
1273	5.98853e+02	1.27300e+03	6.87566e-02	5.94771e+02
1277	6.01713e+02	1.27700e+03	6.87876e-02	5.97771e+02
1281	6.04650e+02	1.28100e+03	6.85630e-02	6.00771e+02
1285	6.07496e+02	1.28500e+03	6.85601e-02	6.03771e+02
1289	6.10328e+02	1.28900e+03	6.86387e-02	6.06771e+02
1293	6.13943e+02	1.29300e+03	6.86611e-02	6.09771e+02
1297	6.16480e+02	1.29700e+03	6.86518e-02	6.12771e+02
1301	6.19637e+02	1.30100e+03	6.86178e-02	6.15772e+02
1305	6.22715e+02	1.30500e+03	6.86911e-02	6.18772e+02
1309	6.25432e+02	1.30900e+03	6.87805e-02	6.21772e+02
1313	6.28519e+02	1.31300e+03	6.88285e-02	6.24772e+02
1317	6.31389e+02	1.31700e+03	6.88778e-02	6.27772e+02
1321	6.34315e+02	1.32100e+03	6.88703e-02	6.30772e+02
1325	6.37248e+02	1.32500e+03	6.88178e-02	6.33772e+02
1329	6.40188e+02	1.32900e+03	6.86307e-02	6.36772e+02
1333	6.43276e+02	1.33300e+03	6.83115e-02	6.39773e+02
1337	6.46285e+02	1.33700e+03	6.81591e-02	6.42773e+02
1341	6.49435e+02	1.34100e+03	6.83300e-02	6.45773e+02
1345	6.52424e+02	1.34500e+03	6.87462e-02	6.48773e+02
1349	6.55365e+02	1.34900e+03	6.89853e-02	6.51773e+02
1353	6.58052e+02	1.35300e+03	6.87831e-02	6.54773e+02
1357	6.60880e+02	1.35700e+03	6.84665e-02	6.57773e+02
1361	6.63845e+02	1.36100e+03	6.83028e-02	6.60773e+02
1365	6.66781e+02	1.36500e+03	6.82600e-02	6.63773e+02
1369	6.69759e+02	1.36900e+03	6.82817e-02	6.66774e+02
1373	6.72742e+02	1.37300e+03	6.82728e-02	6.69774e+02
1377	6.75714e+02	1.37700e+03	6.81874e-02	6.72774e+02
1381	6.78643e+02	1.38100e+03	6.80744e-02	6.75774e+02
1385	6.81588e+02	1.38500e+03	6.80856e-02	6.78774e+02
1389	6.83936e+02	1.38900e+03	6.82223e-02	6.81774e+02
1393	6.86165e+02	1.39300e+03	6.84100e-02	6.84774e+02
1397	6.88140e+02	1.39700e+03	6.84472e-02	6.87774e+02
1401	6.89837e+02	1.40100e+03	6.83611e-02	6.90775e+02
1405	6.91438e+02	1.40500e+03	6.83331e-02	6.93775e+02
1409	6.92710e+02	1.40900e+03	6.83912e-02	6.96775e+02
1413	6.93637e+02	1.41300e+03	6.84699e-02	6.99775e+02
1414	6.93815e+02	1.41400e+03	6.84770e-02	7.00000e+02