File: Experiments/TUBS/tga_nonisotherm/tga_dynamic_n2_dyn60_powder_12mg_r3.txt
index	ts	t	weight	tr
[#]	[°C]	[s]	[mg]	[°C]
643	1.30950e+02	6.43000e+02	1.19182e+01	1.33000e+02
646	1.34039e+02	6.46000e+02	1.19178e+01	1.36000e+02
649	1.37116e+02	6.49000e+02	1.19174e+01	1.39000e+02
652	1.40166e+02	6.52000e+02	1.19168e+01	1.42000e+02
655	1.43245e+02	6.55000e+02	1.19160e+01	1.45000e+02
658	1.46291e+02	6.58000e+02	1.19147e+01	1.48000e+02
661	1.49360e+02	6.61000e+02	1.19131e+01	1.51000e+02
664	1.52430e+02	6.64000e+02	1.19110e+01	1.54000e+02
667	1.55485e+02	6.67000e+02	1.19086e+01	1.57000e+02
670	1.58538e+02	6.70000e+02	1.19054e+01	1.60000e+02
673	1.61591e+02	6.73000e+02	1.19017e+01	1.63000e+02
676	1.64635e+02	6.76000e+02	1.18974e+01	1.66000e+02
679	1.67697e+02	6.79000e+02	1.18926e+01	1.69000e+02
682	1.70734e+02	6.82000e+02	1.18870e+01	1.72000e+02
685	1.73786e+02	6.85000e+02	1.18807e+01	1.75000e+02
688	1.76836e+02	6.88000e+02	1.18733e+01	1.78000e+02
691	1.79862e+02	6.91000e+02	1.18647e+01	1.81000e+02
694	1.82892e+02	6.94000e+02	1.18541e+01	1.84000e+02
697	1.85935e+02	6.97000e+02	1.18412e+01	1.87000e+02
700	1.88962e+02	7.00000e+02	1.18254e+01	1.90000e+02
703	1.91976e+02	7.03000e+02	1.18069e+01	1.93000e+02
706	1.95020e+02	7.06000e+02	1.17838e+01	1.96000e+02
709	1.98040e+02	7.09000e+02	1.17571e+01	1.99000e+02
712	2.01082e+02	7.12000e+02	1.17270e+01	2.02000e+02
715	2.04124e+02	7.15000e+02	1.16943e+01	2.05000e+02
718	2.07171e+02	7.18000e+02	1.16588e+01	2.08000e+02
721	2.10215e+02	7.21000e+02	1.16224e+01	2.11000e+02
724	2.13282e+02	7.24000e+02	1.15866e+01	2.14000e+02
727	2.16342e+02	7.27000e+02	1.15524e+01	2.17000e+02
730	2.19424e+02	7.30000e+02	1.15218e+01	2.20000e+02
733	2.22490e+02	7.33000e+02	1.14955e+01	2.23000e+02
736	2.25578e+02	7.36000e+02	1.14735e+01	2.26000e+02
739	2.28667e+02	7.39000e+02	1.14551e+01	2.29000e+02
742	2.31749e+02	7.42000e+02	1.14411e+01	2.32000e+02
745	2.34813e+02	7.45000e+02	1.14292e+01	2.35000e+02
748	2.37892e+02	7.48000e+02	1.14185e+01	2.38000e+02
751	2.40971e+02	7.51000e+02	1.14085e+01	2.41000e+02
754	2.44031e+02	7.54000e+02	1.13990e+01	2.44000e+02
757	2.47052e+02	7.57000e+02	1.13895e+01	2.47000e+02
760	2.50092e+02	7.60000e+02	1.13800e+01	2.50000e+02
763	2.53122e+02	7.63000e+02	1.13707e+01	2.53000e+02
766	2.56157e+02	7.66000e+02	1.13617e+01	2.56000e+02
769	2.59206e+02	7.69000e+02	1.13531e+01	2.59000e+02
772	2.62257e+02	7.72000e+02	1.13449e+01	2.62000e+02
775	2.65264e+02	7.75000e+02	1.13370e+01	2.65000e+02
778	2.68221e+02	7.78000e+02	1.13296e+01	2.68000e+02
781	2.71205e+02	7.81000e+02	1.13223e+01	2.71000e+02
784	2.74205e+02	7.84000e+02	1.13149e+01	2.74000e+02
787	2.77227e+02	7.87000e+02	1.13074e+01	2.77000e+02
790	2.80238e+02	7.90000e+02	1.12994e+01	2.80000e+02
793	2.83228e+02	7.93000e+02	1.12909e+01	2.83000e+02
796	2.86265e+02	7.96000e+02	1.12814e+01	2.86000e+02
799	2.89299e+02	7.99000e+02	1.12709e+01	2.89000e+02
802	2.92358e+02	8.02000e+02	1.12584e+01	2.92000e+02
805	2.95376e+02	8.05000e+02	1.12439e+01	2.95000e+02
808	2.98410e+02	8.08000e+02	1.12270e+01	2.98000e+02
811	3.01439e+02	8.11000e+02	1.12077e+01	3.01000e+02
814	3.04507e+02	8.14000e+02	1.11846e+01	3.04000e+02
817	3.07576e+02	8.17000e+02	1.11579e+01	3.07000e+02
820	3.10674e+02	8.20000e+02	1.11277e+01	3.10000e+02
823	3.13753e+02	8.23000e+02	1.10943e+01	3.13000e+02
826	3.16866e+02	8.26000e+02	1.10564e+01	3.16000e+02
829	3.19956e+02	8.29000e+02	1.10154e+01	3.19000e+02
832	3.23026e+02	8.32000e+02	1.09716e+01	3.22000e+02
835	3.26117e+02	8.35000e+02	1.09256e+01	3.25000e+02
838	3.29220e+02	8.38000e+02	1.08767e+01	3.28000e+02
841	3.32259e+02	8.41000e+02	1.08257e+01	3.31000e+02
844	3.35259e+02	8.44000e+02	1.07718e+01	3.34000e+02
847	3.38284e+02	8.47000e+02	1.07147e+01	3.37000e+02
850	3.41276e+02	8.50000e+02	1.06520e+01	3.40000e+02
853	3.44291e+02	8.53000e+02	1.05809e+01	3.43000e+02
856	3.47273e+02	8.56000e+02	1.04995e+01	3.46000e+02
859	3.50292e+02	8.59000e+02	1.04073e+01	3.49000e+02
862	3.53263e+02	8.62000e+02	1.02963e+01	3.52000e+02
865	3.56248e+02	8.65000e+02	1.01679e+01	3.55000e+02
868	3.59232e+02	8.68000e+02	1.00203e+01	3.58000e+02
871	3.62182e+02	8.71000e+02	9.85132e+00	3.61000e+02
874	3.65086e+02	8.74000e+02	9.65785e+00	3.64000e+02
877	3.68033e+02	8.77000e+02	9.44217e+00	3.67000e+02
880	3.70927e+02	8.80000e+02	9.20046e+00	3.70000e+02
883	3.73820e+02	8.83000e+02	8.93698e+00	3.73000e+02
886	3.76729e+02	8.86000e+02	8.64954e+00	3.76000e+02
889	3.79601e+02	8.89000e+02	8.34151e+00	3.79000e+02
892	3.82394e+02	8.92000e+02	8.01507e+00	3.82000e+02
895	3.85288e+02	8.95000e+02	7.67411e+00	3.85000e+02
898	3.88128e+02	8.98000e+02	7.31986e+00	3.88000e+02
901	3.90944e+02	9.01000e+02	6.95188e+00	3.91000e+02
904	3.93841e+02	9.04000e+02	6.56980e+00	3.94000e+02
907	3.96740e+02	9.07000e+02	6.17112e+00	3.97000e+02
910	3.99671e+02	9.10000e+02	5.75997e+00	4.00000e+02
913	4.02614e+02	9.13000e+02	5.33518e+00	4.03000e+02
916	4.05525e+02	9.16000e+02	4.90104e+00	4.06000e+02
919	4.08499e+02	9.19000e+02	4.46262e+00	4.09000e+02
922	4.11504e+02	9.22000e+02	4.01285e+00	4.12000e+02
925	4.14486e+02	9.25000e+02	3.54990e+00	4.15000e+02
928	4.17766e+02	9.28000e+02	3.07788e+00	4.18000e+02
931	4.21098e+02	9.31000e+02	2.60135e+00	4.21000e+02
934	4.24395e+02	9.34000e+02	2.12484e+00	4.24000e+02
937	4.27559e+02	9.37000e+02	1.67774e+00	4.27000e+02
940	4.30769e+02	9.40000e+02	1.28424e+00	4.30000e+02
943	4.33951e+02	9.43000e+02	9.56611e-01	4.33000e+02
946	4.37315e+02	9.46000e+02	7.05035e-01	4.36000e+02
949	4.40859e+02	9.49000e+02	5.13113e-01	4.39000e+02
952	4.44258e+02	9.52000e+02	3.73564e-01	4.42000e+02
955	4.47439e+02	9.55000e+02	2.75212e-01	4.45000e+02
958	4.50554e+02	9.58000e+02	2.11896e-01	4.48000e+02
961	4.53731e+02	9.61000e+02	1.68083e-01	4.51000e+02
964	4.57040e+02	9.64000e+02	1.40832e-01	4.54000e+02
967	4.60426e+02	9.67000e+02	1.22466e-01	4.57000e+02
970	4.63690e+02	9.70000e+02	1.10692e-01	4.60000e+02
973	4.66545e+02	9.73000e+02	1.02928e-01	4.63000e+02
976	4.69619e+02	9.76000e+02	9.76992e-02	4.66000e+02
979	4.72399e+02	9.79000e+02	9.41000e-02	4.69000e+02
982	4.75012e+02	9.82000e+02	9.22675e-02	4.72000e+02
985	4.77634e+02	9.85000e+02	9.11985e-02	4.75000e+02
988	4.80497e+02	9.88000e+02	9.06034e-02	4.78000e+02
991	4.83138e+02	9.91000e+02	9.02246e-02	4.81000e+02
994	4.85946e+02	9.94000e+02	8.99914e-02	4.84000e+02
997	4.88767e+02	9.97000e+02	8.97708e-02	4.87000e+02
1000	4.91655e+02	1.00000e+03	8.96121e-02	4.90000e+02
1003	4.94532e+02	1.00300e+03	8.94861e-02	4.93000e+02
1006	4.97473e+02	1.00600e+03	8.93645e-02	4.96000e+02
1009	5.00430e+02	1.00900e+03	8.91955e-02	4.99000e+02
1012	5.03217e+02	1.01200e+03	8.90335e-02	5.02000e+02
1015	5.06064e+02	1.01500e+03	8.89161e-02	5.05000e+02
1018	5.09031e+02	1.01800e+03	8.88402e-02	5.08000e+02
1021	5.12003e+02	1.02100e+03	8.87452e-02	5.11000e+02
1024	5.14976e+02	1.02400e+03	8.86533e-02	5.14000e+02
1027	5.17924e+02	1.02700e+03	8.85713e-02	5.17000e+02
1030	5.20923e+02	1.03000e+03	8.84856e-02	5.20000e+02
1033	5.23865e+02	1.03300e+03	8.83758e-02	5.23000e+02
1036	5.26876e+02	1.03600e+03	8.82698e-02	5.26000e+02
1039	5.29937e+02	1.03900e+03	8.81985e-02	5.29000e+02
1042	5.32879e+02	1.04200e+03	8.81749e-02	5.32000e+02
1045	5.35830e+02	1.04500e+03	8.81220e-02	5.35000e+02
1048	5.39016e+02	1.04800e+03	8.80063e-02	5.38000e+02
1051	5.41971e+02	1.05100e+03	8.79063e-02	5.41000e+02
1054	5.44989e+02	1.05400e+03	8.78564e-02	5.44000e+02
1057	5.48047e+02	1.05700e+03	8.78227e-02	5.47000e+02
1060	5.50889e+02	1.06000e+03	8.77754e-02	5.50000e+02
1063	5.53764e+02	1.06300e+03	8.77594e-02	5.53000e+02
1066	5.56664e+02	1.06600e+03	8.78172e-02	5.56000e+02
1069	5.59605e+02	1.06900e+03	8.79092e-02	5.59000e+02
1072	5.62591e+02	1.07200e+03	8.79600e-02	5.62000e+02
1075	5.65584e+02	1.07500e+03	8.79576e-02	5.65000e+02
1078	5.68632e+02	1.07800e+03	8.78892e-02	5.68000e+02
1081	5.71904e+02	1.08100e+03	8.78348e-02	5.71000e+02
1084	5.74895e+02	1.08400e+03	8.78280e-02	5.74000e+02
1087	5.77900e+02	1.08700e+03	8.78359e-02	5.77000e+02
1090	5.80918e+02	1.09000e+03	8.78240e-02	5.80000e+02
1093	5.83922e+02	1.09300e+03	8.77711e-02	5.83000e+02
1096	5.86971e+02	1.09600e+03	8.77135e-02	5.86000e+02
1099	5.90165e+02	1.09900e+03	8.76757e-02	5.89000e+02
1102	5.93590e+02	1.10200e+03	8.76705e-02	5.92000e+02
1105	5.96531e+02	1.10500e+03	8.76633e-02	5.95000e+02
1108	5.99427e+02	1.10800e+03	8.76408e-02	5.98000e+02
1111	6.02450e+02	1.11100e+03	8.76166e-02	6.01000e+02
1114	6.05576e+02	1.11400e+03	8.75829e-02	6.04000e+02
1117	6.09323e+02	1.11700e+03	8.75446e-02	6.07000e+02
1120	6.12145e+02	1.12000e+03	8.75249e-02	6.10000e+02
1123	6.15375e+02	1.12300e+03	8.75319e-02	6.13000e+02
1126	6.18066e+02	1.12600e+03	8.75422e-02	6.16000e+02
1129	6.20952e+02	1.12900e+03	8.75252e-02	6.19000e+02
1132	6.23923e+02	1.13200e+03	8.75160e-02	6.22000e+02
1135	6.26830e+02	1.13500e+03	8.75250e-02	6.25000e+02
1138	6.29811e+02	1.13800e+03	8.75724e-02	6.28000e+02
1141	6.32761e+02	1.14100e+03	8.76025e-02	6.31000e+02
1144	6.35749e+02	1.14400e+03	8.75625e-02	6.34000e+02
1147	6.38814e+02	1.14700e+03	8.74983e-02	6.37000e+02
1150	6.41927e+02	1.15000e+03	8.74414e-02	6.40000e+02
1153	6.44974e+02	1.15300e+03	8.74320e-02	6.43000e+02
1156	6.47906e+02	1.15600e+03	8.74522e-02	6.46000e+02
1159	6.50831e+02	1.15900e+03	8.74739e-02	6.49000e+02
1162	6.53766e+02	1.16200e+03	8.74857e-02	6.52000e+02
1165	6.56753e+02	1.16500e+03	8.74720e-02	6.55000e+02
1168	6.59680e+02	1.16800e+03	8.74201e-02	6.58000e+02
1171	6.62656e+02	1.17100e+03	8.73652e-02	6.61000e+02
1174	6.65679e+02	1.17400e+03	8.73551e-02	6.64000e+02
1177	6.68611e+02	1.17700e+03	8.73944e-02	6.67000e+02
1180	6.71553e+02	1.18000e+03	8.74140e-02	6.70000e+02
1183	6.74504e+02	1.18300e+03	8.74280e-02	6.73000e+02
1186	6.76315e+02	1.18600e+03	8.74640e-02	6.76000e+02
1189	6.78302e+02	1.18900e+03	8.75664e-02	6.79000e+02
1192	6.80203e+02	1.19200e+03	8.76630e-02	6.82000e+02
1195	6.81842e+02	1.19500e+03	8.77016e-02	6.85000e+02
1198	6.83452e+02	1.19800e+03	8.76556e-02	6.88000e+02
1201	6.84883e+02	1.20100e+03	8.76106e-02	6.91000e+02
1204	6.86179e+02	1.20400e+03	8.76112e-02	6.94000e+02
1207	6.87439e+02	1.20700e+03	8.76365e-02	6.97000e+02
1210	6.88595e+02	1.21000e+03	8.77099e-02	7.00000e+02