File: Experiments/TUBS/tga_nonisotherm/tga_dynamic_n2_dyn120_powder_3mg_r3.txt
index	ts	t	weight	tr
[#]	[°C]	[s]	[mg]	[°C]
623	1.19732e+02	6.23000e+02	2.95424e+00	1.36000e+02
625	1.24667e+02	6.25000e+02	2.95423e+00	1.40000e+02
627	1.29038e+02	6.27000e+02	2.95418e+00	1.44000e+02
629	1.33401e+02	6.29000e+02	2.95414e+00	1.48000e+02
631	1.37948e+02	6.31000e+02	2.95401e+00	1.52000e+02
633	1.42499e+02	6.33000e+02	2.95391e+00	1.56000e+02
635	1.47059e+02	6.35000e+02	2.95348e+00	1.60000e+02
637	1.51593e+02	6.37000e+02	2.95284e+00	1.64000e+02
639	1.56124e+02	6.39000e+02	2.95190e+00	1.68000e+02
641	1.60600e+02	6.41000e+02	2.95058e+00	1.72000e+02
643	1.65072e+02	6.43000e+02	2.94910e+00	1.76000e+02
645	1.69502e+02	6.45000e+02	2.94725e+00	1.80000e+02
647	1.73937e+02	6.47000e+02	2.94528e+00	1.84000e+02
649	1.78309e+02	6.49000e+02	2.94287e+00	1.88000e+02
651	1.82691e+02	6.51000e+02	2.94021e+00	1.92000e+02
653	1.87036e+02	6.53000e+02	2.93671e+00	1.96000e+02
655	1.91368e+02	6.55000e+02	2.93274e+00	2.00000e+02
657	1.95696e+02	6.57000e+02	2.92736e+00	2.04000e+02
659	1.99981e+02	6.59000e+02	2.92146e+00	2.08000e+02
661	2.04268e+02	6.61000e+02	2.91388e+00	2.12000e+02
663	2.08539e+02	6.63000e+02	2.90602e+00	2.16000e+02
665	2.12798e+02	6.65000e+02	2.89693e+00	2.20000e+02
667	2.17062e+02	6.67000e+02	2.88804e+00	2.24000e+02
669	2.21314e+02	6.69000e+02	2.87907e+00	2.28000e+02
671	2.25543e+02	6.71000e+02	2.87070e+00	2.32000e+02
673	2.29753e+02	6.73000e+02	2.86347e+00	2.36000e+02
675	2.33972e+02	6.75000e+02	2.85682e+00	2.40000e+02
677	2.38169e+02	6.77000e+02	2.85175e+00	2.44000e+02
679	2.42351e+02	6.79000e+02	2.84688e+00	2.48000e+02
681	2.46530e+02	6.81000e+02	2.84317e+00	2.52000e+02
683	2.50695e+02	6.83000e+02	2.83943e+00	2.56000e+02
685	2.54851e+02	6.85000e+02	2.83620e+00	2.60000e+02
687	2.58974e+02	6.87000e+02	2.83287e+00	2.64000e+02
689	2.63086e+02	6.89000e+02	2.82966e+00	2.68000e+02
691	2.67165e+02	6.91000e+02	2.82646e+00	2.72000e+02
693	2.71210e+02	6.93000e+02	2.82331e+00	2.76000e+02
695	2.75292e+02	6.95000e+02	2.82012e+00	2.80000e+02
697	2.79353e+02	6.97000e+02	2.81688e+00	2.84000e+02
699	2.83429e+02	6.99000e+02	2.81356e+00	2.88000e+02
701	2.87527e+02	7.01000e+02	2.80996e+00	2.92000e+02
703	2.91609e+02	7.03000e+02	2.80609e+00	2.96000e+02
705	2.95712e+02	7.05000e+02	2.80148e+00	3.00000e+02
707	2.99839e+02	7.07000e+02	2.79643e+00	3.04000e+02
709	3.03969e+02	7.09000e+02	2.79002e+00	3.08000e+02
711	3.08112e+02	7.11000e+02	2.78298e+00	3.12000e+02
713	3.12241e+02	7.13000e+02	2.77394e+00	3.16000e+02
715	3.16328e+02	7.15000e+02	2.76422e+00	3.20000e+02
717	3.20399e+02	7.17000e+02	2.75220e+00	3.24000e+02
719	3.24594e+02	7.19000e+02	2.73967e+00	3.28000e+02
721	3.28724e+02	7.21000e+02	2.72496e+00	3.32000e+02
723	3.32856e+02	7.23000e+02	2.70982e+00	3.36000e+02
725	3.36982e+02	7.25000e+02	2.69245e+00	3.40000e+02
727	3.41081e+02	7.27000e+02	2.67419e+00	3.44000e+02
729	3.45162e+02	7.29000e+02	2.65287e+00	3.48000e+02
731	3.49198e+02	7.31000e+02	2.63055e+00	3.52000e+02
733	3.53292e+02	7.33000e+02	2.60197e+00	3.56000e+02
735	3.57343e+02	7.35000e+02	2.56907e+00	3.60000e+02
737	3.61403e+02	7.37000e+02	2.52971e+00	3.64000e+02
739	3.65366e+02	7.39000e+02	2.48323e+00	3.68000e+02
741	3.69333e+02	7.41000e+02	2.42545e+00	3.72000e+02
743	3.73319e+02	7.43000e+02	2.36035e+00	3.76000e+02
745	3.77266e+02	7.45000e+02	2.28435e+00	3.80000e+02
747	3.81249e+02	7.47000e+02	2.19850e+00	3.84000e+02
749	3.85178e+02	7.49000e+02	2.10186e+00	3.88000e+02
751	3.89073e+02	7.51000e+02	1.99864e+00	3.92000e+02
753	3.93096e+02	7.53000e+02	1.88555e+00	3.96000e+02
755	3.97133e+02	7.55000e+02	1.76546e+00	4.00000e+02
757	4.00942e+02	7.57000e+02	1.63956e+00	4.04000e+02
759	4.04812e+02	7.59000e+02	1.50905e+00	4.08000e+02
761	4.08790e+02	7.61000e+02	1.37240e+00	4.12000e+02
763	4.12774e+02	7.63000e+02	1.23542e+00	4.16000e+02
765	4.16810e+02	7.65000e+02	1.09581e+00	4.20000e+02
767	4.20541e+02	7.67000e+02	9.57668e-01	4.24000e+02
769	4.24467e+02	7.69000e+02	8.20369e-01	4.28000e+02
771	4.28133e+02	7.71000e+02	6.86410e-01	4.32000e+02
773	4.31987e+02	7.73000e+02	5.62159e-01	4.36000e+02
775	4.35691e+02	7.75000e+02	4.48444e-01	4.40000e+02
777	4.39642e+02	7.77000e+02	3.51971e-01	4.44000e+02
779	4.43690e+02	7.79000e+02	2.68756e-01	4.48000e+02
781	4.47609e+02	7.81000e+02	2.03674e-01	4.52000e+02
783	4.51550e+02	7.83000e+02	1.50809e-01	4.56000e+02
785	4.55590e+02	7.85000e+02	1.14691e-01	4.60000e+02
787	4.59568e+02	7.87000e+02	8.60608e-02	4.64000e+02
789	4.63537e+02	7.89000e+02	6.80827e-02	4.68000e+02
791	4.67442e+02	7.91000e+02	5.50815e-02	4.72000e+02
793	4.71428e+02	7.93000e+02	4.76822e-02	4.76000e+02
795	4.75522e+02	7.95000e+02	4.20063e-02	4.80000e+02
797	4.79781e+02	7.97000e+02	3.90537e-02	4.84000e+02
799	4.84085e+02	7.99000e+02	3.62886e-02	4.88000e+02
801	4.88091e+02	8.01000e+02	3.53171e-02	4.92000e+02
803	4.92544e+02	8.03000e+02	3.42461e-02	4.96000e+02
805	4.96510e+02	8.05000e+02	3.39528e-02	5.00000e+02
807	5.00396e+02	8.07000e+02	3.35722e-02	5.04000e+02
809	5.04236e+02	8.09000e+02	3.34606e-02	5.08000e+02
811	5.09059e+02	8.11000e+02	3.33006e-02	5.12000e+02
813	5.12958e+02	8.13000e+02	3.32056e-02	5.16000e+02
815	5.16945e+02	8.15000e+02	3.31065e-02	5.20000e+02
817	5.19663e+02	8.17000e+02	3.30349e-02	5.24000e+02
819	5.23646e+02	8.19000e+02	3.29788e-02	5.28000e+02
821	5.27556e+02	8.21000e+02	3.29550e-02	5.32000e+02
823	5.31444e+02	8.23000e+02	3.29227e-02	5.36000e+02
825	5.35077e+02	8.25000e+02	3.29034e-02	5.40000e+02
827	5.38829e+02	8.27000e+02	3.28880e-02	5.44000e+02
829	5.42729e+02	8.29000e+02	3.28725e-02	5.48000e+02
831	5.46520e+02	8.31000e+02	3.28519e-02	5.52000e+02
833	5.50305e+02	8.33000e+02	3.28455e-02	5.56000e+02
835	5.54259e+02	8.35000e+02	3.28648e-02	5.60000e+02
837	5.57997e+02	8.37000e+02	3.28968e-02	5.64000e+02
839	5.61812e+02	8.39000e+02	3.28944e-02	5.68000e+02
841	5.65705e+02	8.41000e+02	3.28648e-02	5.72000e+02
843	5.69638e+02	8.43000e+02	3.28370e-02	5.76000e+02
845	5.73430e+02	8.45000e+02	3.27852e-02	5.80000e+02
847	5.77213e+02	8.47000e+02	3.27319e-02	5.84000e+02
849	5.81075e+02	8.49000e+02	3.26804e-02	5.88000e+02
851	5.84788e+02	8.51000e+02	3.26484e-02	5.92000e+02
853	5.88639e+02	8.53000e+02	3.26376e-02	5.96000e+02
855	5.92524e+02	8.55000e+02	3.26309e-02	6.00000e+02
857	5.96409e+02	8.57000e+02	3.26556e-02	6.04000e+02
859	6.00334e+02	8.59000e+02	3.26811e-02	6.08000e+02
861	6.04211e+02	8.61000e+02	3.26988e-02	6.12000e+02
863	6.08131e+02	8.63000e+02	3.26958e-02	6.16000e+02
865	6.12034e+02	8.65000e+02	3.26768e-02	6.20000e+02
867	6.16015e+02	8.67000e+02	3.26863e-02	6.24000e+02
869	6.20227e+02	8.69000e+02	3.26941e-02	6.28000e+02
871	6.24173e+02	8.71000e+02	3.26621e-02	6.32000e+02
873	6.28116e+02	8.73000e+02	3.25849e-02	6.36000e+02
875	6.31997e+02	8.75000e+02	3.25217e-02	6.40000e+02
877	6.35879e+02	8.77000e+02	3.24484e-02	6.44000e+02
879	6.39810e+02	8.79000e+02	3.23889e-02	6.48000e+02
881	6.41329e+02	8.81000e+02	3.23899e-02	6.52000e+02
883	6.43870e+02	8.83000e+02	3.24269e-02	6.56000e+02
885	6.46818e+02	8.85000e+02	3.25322e-02	6.60000e+02
887	6.49715e+02	8.87000e+02	3.25526e-02	6.64000e+02
889	6.52410e+02	8.89000e+02	3.25077e-02	6.68000e+02
891	6.54740e+02	8.91000e+02	3.24092e-02	6.72000e+02
893	6.56973e+02	8.93000e+02	3.22333e-02	6.76000e+02
895	6.59131e+02	8.95000e+02	3.21016e-02	6.80000e+02
897	6.61188e+02	8.97000e+02	3.20042e-02	6.84000e+02
899	6.63423e+02	8.99000e+02	3.19459e-02	6.88000e+02
901	6.65674e+02	9.01000e+02	3.19512e-02	6.92000e+02
903	6.66952e+02	9.03000e+02	3.19608e-02	6.96000e+02
905	6.68407e+02	9.05000e+02	3.19967e-02	7.00000e+02