File: Experiments/TUBS/tga_nonisotherm/tga_dynamic_n2_dyn60_piece_3mg_r1.txt
index	ts	t	weight	tr
[#]	[°C]	[s]	[mg]	[°C]
643	1.29976e+02	6.43000e+02	2.94200e+00	1.33000e+02
646	1.33016e+02	6.46000e+02	2.94189e+00	1.36000e+02
649	1.36055e+02	6.49000e+02	2.94189e+00	1.39000e+02
652	1.39096e+02	6.52000e+02	2.94197e+00	1.42000e+02
655	1.42122e+02	6.55000e+02	2.94204e+00	1.45000e+02
658	1.45155e+02	6.58000e+02	2.94202e+00	1.48000e+02
661	1.48172e+02	6.61000e+02	2.94189e+00	1.51000e+02
664	1.51189e+02	6.64000e+02	2.94173e+00	1.54000e+02
667	1.54210e+02	6.67000e+02	2.94157e+00	1.57000e+02
670	1.57224e+02	6.70000e+02	2.94143e+00	1.60000e+02
673	1.60227e+02	6.73000e+02	2.94128e+00	1.63000e+02
676	1.63230e+02	6.76000e+02	2.94114e+00	1.66000e+02
679	1.66242e+02	6.79000e+02	2.94102e+00	1.69000e+02
682	1.69254e+02	6.82000e+02	2.94089e+00	1.72000e+02
685	1.72250e+02	6.85000e+02	2.94075e+00	1.75000e+02
688	1.75266e+02	6.88000e+02	2.94056e+00	1.78000e+02
691	1.78246e+02	6.91000e+02	2.94035e+00	1.81000e+02
694	1.81254e+02	6.94000e+02	2.94010e+00	1.84000e+02
697	1.84247e+02	6.97000e+02	2.93980e+00	1.87000e+02
700	1.87251e+02	7.00000e+02	2.93943e+00	1.90000e+02
703	1.90240e+02	7.03000e+02	2.93898e+00	1.93000e+02
706	1.93225e+02	7.06000e+02	2.93837e+00	1.96000e+02
709	1.96224e+02	7.09000e+02	2.93761e+00	1.99000e+02
712	1.99222e+02	7.12000e+02	2.93668e+00	2.02000e+02
715	2.02215e+02	7.15000e+02	2.93561e+00	2.05000e+02
718	2.05185e+02	7.18000e+02	2.93431e+00	2.08000e+02
721	2.08179e+02	7.21000e+02	2.93280e+00	2.11000e+02
724	2.11159e+02	7.24000e+02	2.93113e+00	2.14000e+02
727	2.14150e+02	7.27000e+02	2.92932e+00	2.17000e+02
730	2.17129e+02	7.30000e+02	2.92735e+00	2.20000e+02
733	2.20123e+02	7.33000e+02	2.92528e+00	2.23000e+02
736	2.23137e+02	7.36000e+02	2.92316e+00	2.26000e+02
739	2.26181e+02	7.39000e+02	2.92099e+00	2.29000e+02
742	2.29265e+02	7.42000e+02	2.91874e+00	2.32000e+02
745	2.32381e+02	7.45000e+02	2.91647e+00	2.35000e+02
748	2.35460e+02	7.48000e+02	2.91425e+00	2.38000e+02
751	2.38658e+02	7.51000e+02	2.91203e+00	2.41000e+02
754	2.41767e+02	7.54000e+02	2.90977e+00	2.44000e+02
757	2.44821e+02	7.57000e+02	2.90741e+00	2.47000e+02
760	2.47913e+02	7.60000e+02	2.90499e+00	2.50000e+02
763	2.50944e+02	7.63000e+02	2.90251e+00	2.53000e+02
766	2.53907e+02	7.66000e+02	2.89997e+00	2.56000e+02
769	2.56904e+02	7.69000e+02	2.89737e+00	2.59000e+02
772	2.59943e+02	7.72000e+02	2.89473e+00	2.62000e+02
775	2.62959e+02	7.75000e+02	2.89202e+00	2.65000e+02
778	2.65995e+02	7.78000e+02	2.88920e+00	2.68000e+02
781	2.69024e+02	7.81000e+02	2.88632e+00	2.71000e+02
784	2.72062e+02	7.84000e+02	2.88342e+00	2.74000e+02
787	2.75093e+02	7.87000e+02	2.88049e+00	2.77000e+02
790	2.78113e+02	7.90000e+02	2.87752e+00	2.80000e+02
793	2.81151e+02	7.93000e+02	2.87450e+00	2.83000e+02
796	2.84228e+02	7.96000e+02	2.87143e+00	2.86000e+02
799	2.87276e+02	7.99000e+02	2.86828e+00	2.89000e+02
802	2.90299e+02	8.02000e+02	2.86492e+00	2.92000e+02
805	2.93356e+02	8.05000e+02	2.86132e+00	2.95000e+02
808	2.96342e+02	8.08000e+02	2.85745e+00	2.98000e+02
811	2.99325e+02	8.11000e+02	2.85332e+00	3.01000e+02
814	3.02262e+02	8.14000e+02	2.84882e+00	3.04000e+02
817	3.05212e+02	8.17000e+02	2.84401e+00	3.07000e+02
820	3.08227e+02	8.20000e+02	2.83877e+00	3.10000e+02
823	3.11265e+02	8.23000e+02	2.83310e+00	3.13000e+02
826	3.14325e+02	8.26000e+02	2.82673e+00	3.16000e+02
829	3.17271e+02	8.29000e+02	2.81977e+00	3.19000e+02
832	3.20260e+02	8.32000e+02	2.81226e+00	3.22000e+02
835	3.23360e+02	8.35000e+02	2.80428e+00	3.25000e+02
838	3.26375e+02	8.38000e+02	2.79570e+00	3.28000e+02
841	3.29400e+02	8.41000e+02	2.78678e+00	3.31000e+02
844	3.32418e+02	8.44000e+02	2.77753e+00	3.34000e+02
847	3.35467e+02	8.47000e+02	2.76793e+00	3.37000e+02
850	3.38486e+02	8.50000e+02	2.75758e+00	3.40000e+02
853	3.41512e+02	8.53000e+02	2.74623e+00	3.43000e+02
856	3.44529e+02	8.56000e+02	2.73345e+00	3.46000e+02
859	3.47586e+02	8.59000e+02	2.71907e+00	3.49000e+02
862	3.50659e+02	8.62000e+02	2.70172e+00	3.52000e+02
865	3.53707e+02	8.65000e+02	2.68106e+00	3.55000e+02
868	3.56804e+02	8.68000e+02	2.65611e+00	3.58000e+02
871	3.59798e+02	8.71000e+02	2.62672e+00	3.61000e+02
874	3.62817e+02	8.74000e+02	2.59077e+00	3.64000e+02
877	3.65809e+02	8.77000e+02	2.54813e+00	3.67000e+02
880	3.68785e+02	8.80000e+02	2.49846e+00	3.70000e+02
883	3.71710e+02	8.83000e+02	2.44115e+00	3.73000e+02
886	3.74582e+02	8.86000e+02	2.37326e+00	3.76000e+02
889	3.77500e+02	8.89000e+02	2.29575e+00	3.79000e+02
892	3.80456e+02	8.92000e+02	2.20804e+00	3.82000e+02
895	3.83374e+02	8.95000e+02	2.11151e+00	3.85000e+02
898	3.86251e+02	8.98000e+02	2.00442e+00	3.88000e+02
901	3.89154e+02	9.01000e+02	1.88989e+00	3.91000e+02
904	3.92120e+02	9.04000e+02	1.76975e+00	3.94000e+02
907	3.95026e+02	9.07000e+02	1.64175e+00	3.97000e+02
910	3.97938e+02	9.10000e+02	1.50909e+00	4.00000e+02
913	4.00920e+02	9.13000e+02	1.37470e+00	4.03000e+02
916	4.03873e+02	9.16000e+02	1.23979e+00	4.06000e+02
919	4.06778e+02	9.19000e+02	1.10473e+00	4.09000e+02
922	4.09752e+02	9.22000e+02	9.68907e-01	4.12000e+02
925	4.12745e+02	9.25000e+02	8.31996e-01	4.15000e+02
928	4.15835e+02	9.28000e+02	6.96636e-01	4.18000e+02
931	4.18934e+02	9.31000e+02	5.64780e-01	4.21000e+02
934	4.22088e+02	9.34000e+02	4.45317e-01	4.24000e+02
937	4.25241e+02	9.37000e+02	3.45206e-01	4.27000e+02
940	4.28287e+02	9.40000e+02	2.64379e-01	4.30000e+02
943	4.31356e+02	9.43000e+02	2.00303e-01	4.33000e+02
946	4.34409e+02	9.46000e+02	1.54829e-01	4.36000e+02
949	4.37492e+02	9.49000e+02	1.20796e-01	4.39000e+02
952	4.40592e+02	9.52000e+02	9.60844e-02	4.42000e+02
955	4.43808e+02	9.55000e+02	7.91321e-02	4.45000e+02
958	4.46973e+02	9.58000e+02	6.76790e-02	4.48000e+02
961	4.50182e+02	9.61000e+02	5.95265e-02	4.51000e+02
964	4.53463e+02	9.64000e+02	5.36860e-02	4.54000e+02
967	4.56590e+02	9.67000e+02	4.93300e-02	4.57000e+02
970	4.59529e+02	9.70000e+02	4.65842e-02	4.60000e+02
973	4.62547e+02	9.73000e+02	4.45427e-02	4.63000e+02
976	4.65481e+02	9.76000e+02	4.30538e-02	4.66000e+02
979	4.68484e+02	9.79000e+02	4.19611e-02	4.69000e+02
982	4.71490e+02	9.82000e+02	4.13396e-02	4.72000e+02
985	4.74432e+02	9.85000e+02	4.09314e-02	4.75000e+02
988	4.77332e+02	9.88000e+02	4.06299e-02	4.78000e+02
991	4.80397e+02	9.91000e+02	4.03855e-02	4.81000e+02
994	4.83201e+02	9.94000e+02	4.02028e-02	4.84000e+02
997	4.86056e+02	9.97000e+02	4.00705e-02	4.87000e+02
1000	4.88924e+02	1.00000e+03	3.99682e-02	4.90000e+02
1003	4.91791e+02	1.00300e+03	3.98782e-02	4.93000e+02
1006	4.94737e+02	1.00600e+03	3.98137e-02	4.96000e+02
1009	4.97663e+02	1.00900e+03	3.97563e-02	4.99000e+02
1012	5.00598e+02	1.01200e+03	3.96798e-02	5.02000e+02
1015	5.03523e+02	1.01500e+03	3.96186e-02	5.05000e+02
1018	5.06459e+02	1.01800e+03	3.95911e-02	5.08000e+02
1021	5.09390e+02	1.02100e+03	3.95882e-02	5.11000e+02
1024	5.12375e+02	1.02400e+03	3.95909e-02	5.14000e+02
1027	5.15319e+02	1.02700e+03	3.95883e-02	5.17000e+02
1030	5.18263e+02	1.03000e+03	3.95709e-02	5.20000e+02
1033	5.21216e+02	1.03300e+03	3.95304e-02	5.23000e+02
1036	5.24163e+02	1.03600e+03	3.94550e-02	5.26000e+02
1039	5.27119e+02	1.03900e+03	3.93754e-02	5.29000e+02
1042	5.30059e+02	1.04200e+03	3.93192e-02	5.32000e+02
1045	5.33036e+02	1.04500e+03	3.93020e-02	5.35000e+02
1048	5.35977e+02	1.04800e+03	3.92891e-02	5.38000e+02
1051	5.38868e+02	1.05100e+03	3.92661e-02	5.41000e+02
1054	5.41778e+02	1.05400e+03	3.91972e-02	5.44000e+02
1057	5.44693e+02	1.05700e+03	3.91134e-02	5.47000e+02
1060	5.47649e+02	1.06000e+03	3.90677e-02	5.50000e+02
1063	5.50598e+02	1.06300e+03	3.90479e-02	5.53000e+02
1066	5.53552e+02	1.06600e+03	3.90846e-02	5.56000e+02
1069	5.56489e+02	1.06900e+03	3.91340e-02	5.59000e+02
1072	5.59463e+02	1.07200e+03	3.91259e-02	5.62000e+02
1075	5.62417e+02	1.07500e+03	3.91108e-02	5.65000e+02
1078	5.65387e+02	1.07800e+03	3.90962e-02	5.68000e+02
1081	5.68350e+02	1.08100e+03	3.90828e-02	5.71000e+02
1084	5.71320e+02	1.08400e+03	3.90855e-02	5.74000e+02
1087	5.74292e+02	1.08700e+03	3.90865e-02	5.77000e+02
1090	5.77270e+02	1.09000e+03	3.90588e-02	5.80000e+02
1093	5.80218e+02	1.09300e+03	3.90033e-02	5.83000e+02
1096	5.83180e+02	1.09600e+03	3.89628e-02	5.86000e+02
1099	5.86164e+02	1.09900e+03	3.89152e-02	5.89000e+02
1102	5.89136e+02	1.10200e+03	3.88701e-02	5.92000e+02
1105	5.92088e+02	1.10500e+03	3.88413e-02	5.95000e+02
1108	5.95071e+02	1.10800e+03	3.88107e-02	5.98000e+02
1111	5.98055e+02	1.11100e+03	3.87713e-02	6.01000e+02
1114	6.01027e+02	1.11400e+03	3.87075e-02	6.04000e+02
1117	6.04028e+02	1.11700e+03	3.86472e-02	6.07000e+02
1120	6.06963e+02	1.12000e+03	3.86103e-02	6.10000e+02
1123	6.09934e+02	1.12300e+03	3.85824e-02	6.13000e+02
1126	6.12896e+02	1.12600e+03	3.85844e-02	6.16000e+02
1129	6.15872e+02	1.12900e+03	3.86060e-02	6.19000e+02
1132	6.18826e+02	1.13200e+03	3.85902e-02	6.22000e+02
1135	6.21837e+02	1.13500e+03	3.85538e-02	6.25000e+02
1138	6.24865e+02	1.13800e+03	3.85404e-02	6.28000e+02
1141	6.27884e+02	1.14100e+03	3.85990e-02	6.31000e+02
1144	6.30860e+02	1.14400e+03	3.86772e-02	6.34000e+02
1147	6.33845e+02	1.14700e+03	3.87453e-02	6.37000e+02
1150	6.36794e+02	1.15000e+03	3.87657e-02	6.40000e+02
1153	6.39743e+02	1.15300e+03	3.87262e-02	6.43000e+02
1156	6.42746e+02	1.15600e+03	3.86762e-02	6.46000e+02
1159	6.45777e+02	1.15900e+03	3.86577e-02	6.49000e+02
1162	6.48793e+02	1.16200e+03	3.86898e-02	6.52000e+02
1165	6.51795e+02	1.16500e+03	3.87203e-02	6.55000e+02
1168	6.54781e+02	1.16800e+03	3.87126e-02	6.58000e+02
1171	6.57786e+02	1.17100e+03	3.86891e-02	6.61000e+02
1174	6.60755e+02	1.17400e+03	3.86544e-02	6.64000e+02
1177	6.63729e+02	1.17700e+03	3.86195e-02	6.67000e+02
1180	6.66715e+02	1.18000e+03	3.85791e-02	6.70000e+02
1183	6.69690e+02	1.18300e+03	3.85487e-02	6.73000e+02
1186	6.71454e+02	1.18600e+03	3.85892e-02	6.76000e+02
1189	6.73544e+02	1.18900e+03	3.87257e-02	6.79000e+02
1192	6.75640e+02	1.19200e+03	3.88365e-02	6.82000e+02
1195	6.77551e+02	1.19500e+03	3.88377e-02	6.85000e+02
1198	6.79287e+02	1.19800e+03	3.86926e-02	6.88000e+02
1201	6.80859e+02	1.20100e+03	3.85343e-02	6.91000e+02
1204	6.82310e+02	1.20400e+03	3.84482e-02	6.94000e+02
1207	6.83626e+02	1.20700e+03	3.84555e-02	6.97000e+02
1210	6.84881e+02	1.21000e+03	3.85472e-02	7.00000e+02