File: Experiments/TUBS/tga_nonisotherm/tga_dynamic_n2_dyn120_piece_3mg_r2.txt
index	ts	t	weight	tr
[#]	[°C]	[s]	[mg]	[°C]
623	1.18325e+02	6.23000e+02	2.97923e+00	1.36000e+02
625	1.23151e+02	6.25000e+02	2.97923e+00	1.40000e+02
627	1.27817e+02	6.27000e+02	2.97921e+00	1.44000e+02
629	1.32124e+02	6.29000e+02	2.97923e+00	1.48000e+02
631	1.36621e+02	6.31000e+02	2.97918e+00	1.52000e+02
633	1.41198e+02	6.33000e+02	2.97928e+00	1.56000e+02
635	1.45758e+02	6.35000e+02	2.97913e+00	1.60000e+02
637	1.50334e+02	6.37000e+02	2.97894e+00	1.64000e+02
639	1.54891e+02	6.39000e+02	2.97853e+00	1.68000e+02
641	1.59421e+02	6.41000e+02	2.97798e+00	1.72000e+02
643	1.63925e+02	6.43000e+02	2.97742e+00	1.76000e+02
645	1.68389e+02	6.45000e+02	2.97690e+00	1.80000e+02
647	1.72848e+02	6.47000e+02	2.97640e+00	1.84000e+02
649	1.77264e+02	6.49000e+02	2.97603e+00	1.88000e+02
651	1.81675e+02	6.51000e+02	2.97565e+00	1.92000e+02
653	1.86059e+02	6.53000e+02	2.97536e+00	1.96000e+02
655	1.90419e+02	6.55000e+02	2.97503e+00	2.00000e+02
657	1.94759e+02	6.57000e+02	2.97467e+00	2.04000e+02
659	1.99056e+02	6.59000e+02	2.97426e+00	2.08000e+02
661	2.03369e+02	6.61000e+02	2.97372e+00	2.12000e+02
663	2.07650e+02	6.63000e+02	2.97314e+00	2.16000e+02
665	2.11922e+02	6.65000e+02	2.97235e+00	2.20000e+02
667	2.16188e+02	6.67000e+02	2.97148e+00	2.24000e+02
669	2.20435e+02	6.69000e+02	2.97035e+00	2.28000e+02
671	2.24678e+02	6.71000e+02	2.96915e+00	2.32000e+02
673	2.28892e+02	6.73000e+02	2.96768e+00	2.36000e+02
675	2.33106e+02	6.75000e+02	2.96618e+00	2.40000e+02
677	2.37293e+02	6.77000e+02	2.96447e+00	2.44000e+02
679	2.41483e+02	6.79000e+02	2.96275e+00	2.48000e+02
681	2.45646e+02	6.81000e+02	2.96088e+00	2.52000e+02
683	2.49799e+02	6.83000e+02	2.95897e+00	2.56000e+02
685	2.53954e+02	6.85000e+02	2.95695e+00	2.60000e+02
687	2.58075e+02	6.87000e+02	2.95492e+00	2.64000e+02
689	2.62205e+02	6.89000e+02	2.95281e+00	2.68000e+02
691	2.66295e+02	6.91000e+02	2.95065e+00	2.72000e+02
693	2.70413e+02	6.93000e+02	2.94837e+00	2.76000e+02
695	2.74482e+02	6.95000e+02	2.94604e+00	2.80000e+02
697	2.78569e+02	6.97000e+02	2.94353e+00	2.84000e+02
699	2.82651e+02	6.99000e+02	2.94096e+00	2.88000e+02
701	2.86743e+02	7.01000e+02	2.93817e+00	2.92000e+02
703	2.90805e+02	7.03000e+02	2.93530e+00	2.96000e+02
705	2.94906e+02	7.05000e+02	2.93210e+00	3.00000e+02
707	2.99000e+02	7.07000e+02	2.92872e+00	3.04000e+02
709	3.03082e+02	7.09000e+02	2.92484e+00	3.08000e+02
711	3.07205e+02	7.11000e+02	2.92079e+00	3.12000e+02
713	3.11271e+02	7.13000e+02	2.91611e+00	3.16000e+02
715	3.15334e+02	7.15000e+02	2.91121e+00	3.20000e+02
717	3.19434e+02	7.17000e+02	2.90550e+00	3.24000e+02
719	3.23517e+02	7.19000e+02	2.89948e+00	3.28000e+02
721	3.27562e+02	7.21000e+02	2.89237e+00	3.32000e+02
723	3.31621e+02	7.23000e+02	2.88492e+00	3.36000e+02
725	3.35675e+02	7.25000e+02	2.87619e+00	3.40000e+02
727	3.39741e+02	7.27000e+02	2.86710e+00	3.44000e+02
729	3.43773e+02	7.29000e+02	2.85641e+00	3.48000e+02
731	3.47808e+02	7.31000e+02	2.84497e+00	3.52000e+02
733	3.51841e+02	7.33000e+02	2.83073e+00	3.56000e+02
735	3.55919e+02	7.35000e+02	2.81617e+00	3.60000e+02
737	3.59912e+02	7.37000e+02	2.79529e+00	3.64000e+02
739	3.63919e+02	7.39000e+02	2.77117e+00	3.68000e+02
741	3.67964e+02	7.41000e+02	2.74022e+00	3.72000e+02
743	3.71976e+02	7.43000e+02	2.70187e+00	3.76000e+02
745	3.75992e+02	7.45000e+02	2.65245e+00	3.80000e+02
747	3.80059e+02	7.47000e+02	2.59383e+00	3.84000e+02
749	3.83968e+02	7.49000e+02	2.51991e+00	3.88000e+02
751	3.87930e+02	7.51000e+02	2.43522e+00	3.92000e+02
753	3.91817e+02	7.53000e+02	2.33543e+00	3.96000e+02
755	3.95719e+02	7.55000e+02	2.22271e+00	4.00000e+02
757	3.99668e+02	7.57000e+02	2.09890e+00	4.04000e+02
759	4.03608e+02	7.59000e+02	1.96286e+00	4.08000e+02
761	4.07577e+02	7.61000e+02	1.81624e+00	4.12000e+02
763	4.11526e+02	7.63000e+02	1.66278e+00	4.16000e+02
765	4.15460e+02	7.65000e+02	1.50312e+00	4.20000e+02
767	4.19412e+02	7.67000e+02	1.34329e+00	4.24000e+02
769	4.23408e+02	7.69000e+02	1.18066e+00	4.28000e+02
771	4.27394e+02	7.71000e+02	1.01815e+00	4.32000e+02
773	4.31516e+02	7.73000e+02	8.55496e-01	4.36000e+02
775	4.35645e+02	7.75000e+02	6.92403e-01	4.40000e+02
777	4.39837e+02	7.77000e+02	5.35442e-01	4.44000e+02
779	4.43964e+02	7.79000e+02	3.91523e-01	4.48000e+02
781	4.48092e+02	7.81000e+02	2.74139e-01	4.52000e+02
783	4.52336e+02	7.83000e+02	1.79068e-01	4.56000e+02
785	4.56457e+02	7.85000e+02	1.13477e-01	4.60000e+02
787	4.60586e+02	7.87000e+02	6.59951e-02	4.64000e+02
789	4.64597e+02	7.89000e+02	3.78989e-02	4.68000e+02
791	4.68869e+02	7.91000e+02	1.96244e-02	4.72000e+02
793	4.72957e+02	7.93000e+02	1.03690e-02	4.76000e+02
795	4.77133e+02	7.95000e+02	3.71267e-03	4.80000e+02
797	4.80769e+02	7.97000e+02	1.66865e-04	4.84000e+02
799	4.84579e+02	7.99000e+02	-2.93686e-03	4.88000e+02
801	4.88601e+02	8.01000e+02	-3.91062e-03	4.92000e+02
803	4.92395e+02	8.03000e+02	-5.03842e-03	4.96000e+02
805	4.97407e+02	8.05000e+02	-5.27789e-03	5.00000e+02
807	5.01033e+02	8.07000e+02	-5.61556e-03	5.04000e+02
809	5.04842e+02	8.09000e+02	-5.66081e-03	5.08000e+02
811	5.08834e+02	8.11000e+02	-5.77805e-03	5.12000e+02
813	5.13223e+02	8.13000e+02	-5.82046e-03	5.16000e+02
815	5.16403e+02	8.15000e+02	-5.85005e-03	5.20000e+02
817	5.19747e+02	8.17000e+02	-5.84862e-03	5.24000e+02
819	5.23495e+02	8.19000e+02	-5.88139e-03	5.28000e+02
821	5.27756e+02	8.21000e+02	-5.94154e-03	5.32000e+02
823	5.31346e+02	8.23000e+02	-6.00065e-03	5.36000e+02
825	5.34988e+02	8.25000e+02	-6.07876e-03	5.40000e+02
827	5.38862e+02	8.27000e+02	-6.15854e-03	5.44000e+02
829	5.42617e+02	8.29000e+02	-6.23890e-03	5.48000e+02
831	5.46443e+02	8.31000e+02	-6.30882e-03	5.52000e+02
833	5.50298e+02	8.33000e+02	-6.36614e-03	5.56000e+02
835	5.54235e+02	8.35000e+02	-6.41196e-03	5.60000e+02
837	5.58072e+02	8.37000e+02	-6.42468e-03	5.64000e+02
839	5.61861e+02	8.39000e+02	-6.43358e-03	5.68000e+02
841	5.65908e+02	8.41000e+02	-6.43506e-03	5.72000e+02
843	5.69615e+02	8.43000e+02	-6.46281e-03	5.76000e+02
845	5.73367e+02	8.45000e+02	-6.51843e-03	5.80000e+02
847	5.77219e+02	8.47000e+02	-6.56536e-03	5.84000e+02
849	5.81053e+02	8.49000e+02	-6.59678e-03	5.88000e+02
851	5.84964e+02	8.51000e+02	-6.60462e-03	5.92000e+02
853	5.88907e+02	8.53000e+02	-6.58160e-03	5.96000e+02
855	5.92862e+02	8.55000e+02	-6.57946e-03	6.00000e+02
857	5.97200e+02	8.57000e+02	-6.58554e-03	6.04000e+02
859	6.01219e+02	8.59000e+02	-6.59342e-03	6.08000e+02
861	6.05291e+02	8.61000e+02	-6.60120e-03	6.12000e+02
863	6.09282e+02	8.63000e+02	-6.60031e-03	6.16000e+02
865	6.13502e+02	8.65000e+02	-6.57639e-03	6.20000e+02
867	6.17292e+02	8.67000e+02	-6.54440e-03	6.24000e+02
869	6.21131e+02	8.69000e+02	-6.51500e-03	6.28000e+02
871	6.25074e+02	8.71000e+02	-6.52137e-03	6.32000e+02
873	6.29018e+02	8.73000e+02	-6.57241e-03	6.36000e+02
875	6.32909e+02	8.75000e+02	-6.61653e-03	6.40000e+02
877	6.36862e+02	8.77000e+02	-6.67025e-03	6.44000e+02
879	6.40894e+02	8.79000e+02	-6.69199e-03	6.48000e+02
881	6.42376e+02	8.81000e+02	-6.62096e-03	6.52000e+02
883	6.45079e+02	8.83000e+02	-6.51376e-03	6.56000e+02
885	6.47926e+02	8.85000e+02	-6.34879e-03	6.60000e+02
887	6.50593e+02	8.87000e+02	-6.30477e-03	6.64000e+02
889	6.53077e+02	8.89000e+02	-6.37090e-03	6.68000e+02
891	6.55522e+02	8.91000e+02	-6.48224e-03	6.72000e+02
893	6.57736e+02	8.93000e+02	-6.69976e-03	6.76000e+02
895	6.60128e+02	8.95000e+02	-6.87640e-03	6.80000e+02
897	6.62031e+02	8.97000e+02	-7.01479e-03	6.84000e+02
899	6.63674e+02	8.99000e+02	-7.08722e-03	6.88000e+02
901	6.65294e+02	9.01000e+02	-7.09506e-03	6.92000e+02
903	6.66880e+02	9.03000e+02	-7.13238e-03	6.96000e+02
905	6.68403e+02	9.05000e+02	-7.15582e-03	7.00000e+02