File: Experiments/TUBS/tga_nonisotherm/tga_dynamic_n2_dyn60_powder_1mg_r2.txt
index	ts	t	weight	tr
[#]	[°C]	[s]	[mg]	[°C]
643	1.30306e+02	6.43000e+02	1.00883e+00	1.33000e+02
646	1.33259e+02	6.46000e+02	1.00874e+00	1.36000e+02
649	1.36208e+02	6.49000e+02	1.00871e+00	1.39000e+02
652	1.39163e+02	6.52000e+02	1.00865e+00	1.42000e+02
655	1.42130e+02	6.55000e+02	1.00856e+00	1.45000e+02
658	1.45091e+02	6.58000e+02	1.00840e+00	1.48000e+02
661	1.48054e+02	6.61000e+02	1.00820e+00	1.51000e+02
664	1.51015e+02	6.64000e+02	1.00799e+00	1.54000e+02
667	1.53958e+02	6.67000e+02	1.00776e+00	1.57000e+02
670	1.56911e+02	6.70000e+02	1.00747e+00	1.60000e+02
673	1.59865e+02	6.73000e+02	1.00711e+00	1.63000e+02
676	1.62835e+02	6.76000e+02	1.00668e+00	1.66000e+02
679	1.65785e+02	6.79000e+02	1.00619e+00	1.69000e+02
682	1.68746e+02	6.82000e+02	1.00566e+00	1.72000e+02
685	1.71703e+02	6.85000e+02	1.00514e+00	1.75000e+02
688	1.74659e+02	6.88000e+02	1.00455e+00	1.78000e+02
691	1.77638e+02	6.91000e+02	1.00385e+00	1.81000e+02
694	1.80593e+02	6.94000e+02	1.00299e+00	1.84000e+02
697	1.83573e+02	6.97000e+02	1.00195e+00	1.87000e+02
700	1.86546e+02	7.00000e+02	1.00071e+00	1.90000e+02
703	1.89522e+02	7.03000e+02	9.99254e-01	1.93000e+02
706	1.92503e+02	7.06000e+02	9.97418e-01	1.96000e+02
709	1.95477e+02	7.09000e+02	9.95236e-01	1.99000e+02
712	1.98447e+02	7.12000e+02	9.92812e-01	2.02000e+02
715	2.01441e+02	7.15000e+02	9.90259e-01	2.05000e+02
718	2.04417e+02	7.18000e+02	9.87605e-01	2.08000e+02
721	2.07400e+02	7.21000e+02	9.84983e-01	2.11000e+02
724	2.10401e+02	7.24000e+02	9.82502e-01	2.14000e+02
727	2.13381e+02	7.27000e+02	9.80263e-01	2.17000e+02
730	2.16368e+02	7.30000e+02	9.78461e-01	2.20000e+02
733	2.19382e+02	7.33000e+02	9.77013e-01	2.23000e+02
736	2.22376e+02	7.36000e+02	9.75817e-01	2.26000e+02
739	2.25382e+02	7.39000e+02	9.74766e-01	2.29000e+02
742	2.28371e+02	7.42000e+02	9.73892e-01	2.32000e+02
745	2.31373e+02	7.45000e+02	9.73164e-01	2.35000e+02
748	2.34380e+02	7.48000e+02	9.72553e-01	2.38000e+02
751	2.37380e+02	7.51000e+02	9.71951e-01	2.41000e+02
754	2.40385e+02	7.54000e+02	9.71295e-01	2.44000e+02
757	2.43390e+02	7.57000e+02	9.70558e-01	2.47000e+02
760	2.46392e+02	7.60000e+02	9.69804e-01	2.50000e+02
763	2.49415e+02	7.63000e+02	9.69049e-01	2.53000e+02
766	2.52408e+02	7.66000e+02	9.68324e-01	2.56000e+02
769	2.55430e+02	7.69000e+02	9.67646e-01	2.59000e+02
772	2.58445e+02	7.72000e+02	9.66979e-01	2.62000e+02
775	2.61444e+02	7.75000e+02	9.66317e-01	2.65000e+02
778	2.64474e+02	7.78000e+02	9.65642e-01	2.68000e+02
781	2.67484e+02	7.81000e+02	9.64935e-01	2.71000e+02
784	2.70493e+02	7.84000e+02	9.64222e-01	2.74000e+02
787	2.73522e+02	7.87000e+02	9.63544e-01	2.77000e+02
790	2.76533e+02	7.90000e+02	9.62865e-01	2.80000e+02
793	2.79552e+02	7.93000e+02	9.62147e-01	2.83000e+02
796	2.82558e+02	7.96000e+02	9.61426e-01	2.86000e+02
799	2.85577e+02	7.99000e+02	9.60638e-01	2.89000e+02
802	2.88598e+02	8.02000e+02	9.59696e-01	2.92000e+02
805	2.91617e+02	8.05000e+02	9.58577e-01	2.95000e+02
808	2.94638e+02	8.08000e+02	9.57242e-01	2.98000e+02
811	2.97653e+02	8.11000e+02	9.55697e-01	3.01000e+02
814	3.00678e+02	8.14000e+02	9.53803e-01	3.04000e+02
817	3.03690e+02	8.17000e+02	9.51568e-01	3.07000e+02
820	3.06713e+02	8.20000e+02	9.48962e-01	3.10000e+02
823	3.09731e+02	8.23000e+02	9.46036e-01	3.13000e+02
826	3.12747e+02	8.26000e+02	9.42640e-01	3.16000e+02
829	3.15767e+02	8.29000e+02	9.38887e-01	3.19000e+02
832	3.18770e+02	8.32000e+02	9.34798e-01	3.22000e+02
835	3.21793e+02	8.35000e+02	9.30475e-01	3.25000e+02
838	3.24803e+02	8.38000e+02	9.25898e-01	3.28000e+02
841	3.27813e+02	8.41000e+02	9.21257e-01	3.31000e+02
844	3.30822e+02	8.44000e+02	9.16579e-01	3.34000e+02
847	3.33835e+02	8.47000e+02	9.11754e-01	3.37000e+02
850	3.36836e+02	8.50000e+02	9.06464e-01	3.40000e+02
853	3.39848e+02	8.53000e+02	9.00395e-01	3.43000e+02
856	3.42853e+02	8.56000e+02	8.93320e-01	3.46000e+02
859	3.45836e+02	8.59000e+02	8.85219e-01	3.49000e+02
862	3.48833e+02	8.62000e+02	8.75300e-01	3.52000e+02
865	3.51819e+02	8.65000e+02	8.63501e-01	3.55000e+02
868	3.54809e+02	8.68000e+02	8.49528e-01	3.58000e+02
871	3.57784e+02	8.71000e+02	8.33462e-01	3.61000e+02
874	3.60750e+02	8.74000e+02	8.14078e-01	3.64000e+02
877	3.63717e+02	8.77000e+02	7.91883e-01	3.67000e+02
880	3.66702e+02	8.80000e+02	7.66809e-01	3.70000e+02
883	3.69652e+02	8.83000e+02	7.39217e-01	3.73000e+02
886	3.72619e+02	8.86000e+02	7.08052e-01	3.76000e+02
889	3.75570e+02	8.89000e+02	6.74314e-01	3.79000e+02
892	3.78528e+02	8.92000e+02	6.38011e-01	3.82000e+02
895	3.81484e+02	8.95000e+02	5.99567e-01	3.85000e+02
898	3.84442e+02	8.98000e+02	5.58134e-01	3.88000e+02
901	3.87408e+02	9.01000e+02	5.14678e-01	3.91000e+02
904	3.90379e+02	9.04000e+02	4.69764e-01	3.94000e+02
907	3.93349e+02	9.07000e+02	4.24200e-01	3.97000e+02
910	3.96322e+02	9.10000e+02	3.78408e-01	4.00000e+02
913	3.99294e+02	9.13000e+02	3.33420e-01	4.03000e+02
916	4.02280e+02	9.16000e+02	2.89888e-01	4.06000e+02
919	4.05262e+02	9.19000e+02	2.48143e-01	4.09000e+02
922	4.08250e+02	9.22000e+02	2.09773e-01	4.12000e+02
925	4.11238e+02	9.25000e+02	1.74865e-01	4.15000e+02
928	4.14219e+02	9.28000e+02	1.43647e-01	4.18000e+02
931	4.17221e+02	9.31000e+02	1.15806e-01	4.21000e+02
934	4.20200e+02	9.34000e+02	9.29360e-02	4.24000e+02
937	4.23178e+02	9.37000e+02	7.36766e-02	4.27000e+02
940	4.26169e+02	9.40000e+02	5.77515e-02	4.30000e+02
943	4.29155e+02	9.43000e+02	4.45041e-02	4.33000e+02
946	4.32129e+02	9.46000e+02	3.48133e-02	4.36000e+02
949	4.35100e+02	9.49000e+02	2.73330e-02	4.39000e+02
952	4.38082e+02	9.52000e+02	2.17018e-02	4.42000e+02
955	4.41054e+02	9.55000e+02	1.73893e-02	4.45000e+02
958	4.44017e+02	9.58000e+02	1.46032e-02	4.48000e+02
961	4.46975e+02	9.61000e+02	1.25535e-02	4.51000e+02
964	4.49924e+02	9.64000e+02	1.11050e-02	4.54000e+02
967	4.52897e+02	9.67000e+02	1.00388e-02	4.57000e+02
970	4.55844e+02	9.70000e+02	9.37855e-03	4.60000e+02
973	4.58796e+02	9.73000e+02	8.91298e-03	4.63000e+02
976	4.61767e+02	9.76000e+02	8.60594e-03	4.66000e+02
979	4.64715e+02	9.79000e+02	8.35992e-03	4.69000e+02
982	4.67664e+02	9.82000e+02	8.16897e-03	4.72000e+02
985	4.70633e+02	9.85000e+02	8.02862e-03	4.75000e+02
988	4.73590e+02	9.88000e+02	7.94485e-03	4.78000e+02
991	4.76539e+02	9.91000e+02	7.87201e-03	4.81000e+02
994	4.79510e+02	9.94000e+02	7.80126e-03	4.84000e+02
997	4.82470e+02	9.97000e+02	7.74889e-03	4.87000e+02
1000	4.85409e+02	1.00000e+03	7.72351e-03	4.90000e+02
1003	4.88385e+02	1.00300e+03	7.70593e-03	4.93000e+02
1006	4.91339e+02	1.00600e+03	7.66251e-03	4.96000e+02
1009	4.94294e+02	1.00900e+03	7.58165e-03	4.99000e+02
1012	4.97259e+02	1.01200e+03	7.52230e-03	5.02000e+02
1015	5.00226e+02	1.01500e+03	7.46372e-03	5.05000e+02
1018	5.03175e+02	1.01800e+03	7.41496e-03	5.08000e+02
1021	5.06135e+02	1.02100e+03	7.39461e-03	5.11000e+02
1024	5.09088e+02	1.02400e+03	7.40751e-03	5.14000e+02
1027	5.12057e+02	1.02700e+03	7.40413e-03	5.17000e+02
1030	5.15008e+02	1.03000e+03	7.35398e-03	5.20000e+02
1033	5.17965e+02	1.03300e+03	7.28445e-03	5.23000e+02
1036	5.20927e+02	1.03600e+03	7.25464e-03	5.26000e+02
1039	5.23888e+02	1.03900e+03	7.25554e-03	5.29000e+02
1042	5.26827e+02	1.04200e+03	7.21379e-03	5.32000e+02
1045	5.29794e+02	1.04500e+03	7.09201e-03	5.35000e+02
1048	5.32752e+02	1.04800e+03	7.05572e-03	5.38000e+02
1051	5.35698e+02	1.05100e+03	7.09021e-03	5.41000e+02
1054	5.38677e+02	1.05400e+03	7.15001e-03	5.44000e+02
1057	5.41624e+02	1.05700e+03	7.12265e-03	5.47000e+02
1060	5.44583e+02	1.06000e+03	7.04612e-03	5.50000e+02
1063	5.47532e+02	1.06300e+03	6.99205e-03	5.53000e+02
1066	5.50499e+02	1.06600e+03	7.01345e-03	5.56000e+02
1069	5.53453e+02	1.06900e+03	7.06082e-03	5.59000e+02
1072	5.56416e+02	1.07200e+03	7.07873e-03	5.62000e+02
1075	5.59371e+02	1.07500e+03	7.08303e-03	5.65000e+02
1078	5.62331e+02	1.07800e+03	7.06062e-03	5.68000e+02
1081	5.65284e+02	1.08100e+03	7.02146e-03	5.71000e+02
1084	5.68251e+02	1.08400e+03	6.98994e-03	5.74000e+02
1087	5.71205e+02	1.08700e+03	6.94906e-03	5.77000e+02
1090	5.74172e+02	1.09000e+03	6.91559e-03	5.80000e+02
1093	5.77122e+02	1.09300e+03	6.91958e-03	5.83000e+02
1096	5.80080e+02	1.09600e+03	6.92327e-03	5.86000e+02
1099	5.83057e+02	1.09900e+03	6.91586e-03	5.89000e+02
1102	5.86015e+02	1.10200e+03	6.90194e-03	5.92000e+02
1105	5.88975e+02	1.10500e+03	6.90483e-03	5.95000e+02
1108	5.91943e+02	1.10800e+03	6.89233e-03	5.98000e+02
1111	5.94907e+02	1.11100e+03	6.87206e-03	6.01000e+02
1114	5.97871e+02	1.11400e+03	6.83083e-03	6.04000e+02
1117	6.00833e+02	1.11700e+03	6.79087e-03	6.07000e+02
1120	6.03794e+02	1.12000e+03	6.77633e-03	6.10000e+02
1123	6.06761e+02	1.12300e+03	6.75742e-03	6.13000e+02
1126	6.09722e+02	1.12600e+03	6.74443e-03	6.16000e+02
1129	6.12701e+02	1.12900e+03	6.75282e-03	6.19000e+02
1132	6.15657e+02	1.13200e+03	6.76158e-03	6.22000e+02
1135	6.18624e+02	1.13500e+03	6.76533e-03	6.25000e+02
1138	6.21585e+02	1.13800e+03	6.77047e-03	6.28000e+02
1141	6.24539e+02	1.14100e+03	6.77118e-03	6.31000e+02
1144	6.27506e+02	1.14400e+03	6.75198e-03	6.34000e+02
1147	6.30488e+02	1.14700e+03	6.72894e-03	6.37000e+02
1150	6.33461e+02	1.15000e+03	6.72535e-03	6.40000e+02
1153	6.36426e+02	1.15300e+03	6.74372e-03	6.43000e+02
1156	6.39414e+02	1.15600e+03	6.75182e-03	6.46000e+02
1159	6.42393e+02	1.15900e+03	6.74724e-03	6.49000e+02
1162	6.45360e+02	1.16200e+03	6.72992e-03	6.52000e+02
1165	6.48347e+02	1.16500e+03	6.72046e-03	6.55000e+02
1168	6.51327e+02	1.16800e+03	6.72842e-03	6.58000e+02
1171	6.54303e+02	1.17100e+03	6.74326e-03	6.61000e+02
1174	6.57281e+02	1.17400e+03	6.75681e-03	6.64000e+02
1177	6.60277e+02	1.17700e+03	6.74536e-03	6.67000e+02
1180	6.63258e+02	1.18000e+03	6.70724e-03	6.70000e+02
1183	6.66238e+02	1.18300e+03	6.69282e-03	6.73000e+02
1186	6.67957e+02	1.18600e+03	6.76502e-03	6.76000e+02
1189	6.70008e+02	1.18900e+03	6.93463e-03	6.79000e+02
1192	6.72101e+02	1.19200e+03	7.06343e-03	6.82000e+02
1195	6.73993e+02	1.19500e+03	7.08296e-03	6.85000e+02
1198	6.75735e+02	1.19800e+03	6.95453e-03	6.88000e+02
1201	6.77301e+02	1.20100e+03	6.83602e-03	6.91000e+02
1204	6.78743e+02	1.20400e+03	6.77224e-03	6.94000e+02
1207	6.80070e+02	1.20700e+03	6.71867e-03	6.97000e+02
1210	6.81296e+02	1.21000e+03	6.68974e-03	7.00000e+02