File: Experiments/TUBS/tga_nonisotherm/tga_dynamic_n2_dyn90_powder_3mg_r2.txt
index	ts	t	weight	tr
[#]	[°C]	[s]	[mg]	[°C]
630	1.28713e+02	6.30000e+02	2.95305e+00	1.34996e+02
632	1.32017e+02	6.32000e+02	2.95277e+00	1.37996e+02
634	1.35282e+02	6.34000e+02	2.95237e+00	1.40996e+02
636	1.38539e+02	6.36000e+02	2.95178e+00	1.43996e+02
638	1.41744e+02	6.38000e+02	2.95118e+00	1.46995e+02
640	1.44969e+02	6.40000e+02	2.95056e+00	1.49995e+02
642	1.48177e+02	6.42000e+02	2.94995e+00	1.52995e+02
644	1.51363e+02	6.44000e+02	2.94933e+00	1.55995e+02
646	1.54546e+02	6.46000e+02	2.94864e+00	1.58994e+02
648	1.57717e+02	6.48000e+02	2.94784e+00	1.61994e+02
650	1.60881e+02	6.50000e+02	2.94696e+00	1.64994e+02
652	1.64032e+02	6.52000e+02	2.94594e+00	1.67994e+02
654	1.67178e+02	6.54000e+02	2.94484e+00	1.70993e+02
656	1.70313e+02	6.56000e+02	2.94357e+00	1.73993e+02
658	1.73447e+02	6.58000e+02	2.94216e+00	1.76993e+02
660	1.76571e+02	6.60000e+02	2.94052e+00	1.79993e+02
662	1.79686e+02	6.62000e+02	2.93863e+00	1.82992e+02
664	1.82791e+02	6.64000e+02	2.93628e+00	1.85992e+02
666	1.85903e+02	6.66000e+02	2.93353e+00	1.88992e+02
668	1.88997e+02	6.68000e+02	2.93008e+00	1.91992e+02
670	1.92088e+02	6.70000e+02	2.92611e+00	1.94991e+02
672	1.95180e+02	6.72000e+02	2.92124e+00	1.97991e+02
674	1.98263e+02	6.74000e+02	2.91582e+00	2.00991e+02
676	2.01360e+02	6.76000e+02	2.90953e+00	2.03991e+02
678	2.04457e+02	6.78000e+02	2.90288e+00	2.06990e+02
680	2.07546e+02	6.80000e+02	2.89568e+00	2.09990e+02
682	2.10626e+02	6.82000e+02	2.88841e+00	2.12990e+02
684	2.13724e+02	6.84000e+02	2.88115e+00	2.15990e+02
686	2.16806e+02	6.86000e+02	2.87418e+00	2.18989e+02
688	2.19895e+02	6.88000e+02	2.86780e+00	2.21989e+02
690	2.22960e+02	6.90000e+02	2.86195e+00	2.24989e+02
692	2.26025e+02	6.92000e+02	2.85700e+00	2.27989e+02
694	2.29094e+02	6.94000e+02	2.85258e+00	2.30988e+02
696	2.32160e+02	6.96000e+02	2.84900e+00	2.33988e+02
698	2.35237e+02	6.98000e+02	2.84577e+00	2.36988e+02
700	2.38290e+02	7.00000e+02	2.84309e+00	2.39988e+02
702	2.41343e+02	7.02000e+02	2.84061e+00	2.42987e+02
704	2.44409e+02	7.04000e+02	2.83838e+00	2.45987e+02
706	2.47459e+02	7.06000e+02	2.83616e+00	2.48987e+02
708	2.50534e+02	7.08000e+02	2.83396e+00	2.51987e+02
710	2.53601e+02	7.10000e+02	2.83175e+00	2.54986e+02
712	2.56636e+02	7.12000e+02	2.82953e+00	2.57986e+02
714	2.59676e+02	7.14000e+02	2.82730e+00	2.60986e+02
716	2.62706e+02	7.16000e+02	2.82506e+00	2.63986e+02
718	2.65743e+02	7.18000e+02	2.82283e+00	2.66985e+02
720	2.68785e+02	7.20000e+02	2.82061e+00	2.69985e+02
722	2.71814e+02	7.22000e+02	2.81838e+00	2.72985e+02
724	2.74859e+02	7.24000e+02	2.81613e+00	2.75985e+02
726	2.77885e+02	7.26000e+02	2.81387e+00	2.78984e+02
728	2.80921e+02	7.28000e+02	2.81155e+00	2.81984e+02
730	2.83936e+02	7.30000e+02	2.80912e+00	2.84984e+02
732	2.87008e+02	7.32000e+02	2.80649e+00	2.87984e+02
734	2.90062e+02	7.34000e+02	2.80366e+00	2.90984e+02
736	2.93098e+02	7.36000e+02	2.80046e+00	2.93983e+02
738	2.96121e+02	7.38000e+02	2.79691e+00	2.96983e+02
740	2.99150e+02	7.40000e+02	2.79270e+00	2.99983e+02
742	3.02173e+02	7.42000e+02	2.78797e+00	3.02983e+02
744	3.05196e+02	7.44000e+02	2.78231e+00	3.05982e+02
746	3.08224e+02	7.46000e+02	2.77599e+00	3.08982e+02
748	3.11250e+02	7.48000e+02	2.76854e+00	3.11982e+02
750	3.14274e+02	7.50000e+02	2.76039e+00	3.14982e+02
752	3.17294e+02	7.52000e+02	2.75108e+00	3.17981e+02
754	3.20299e+02	7.54000e+02	2.74119e+00	3.20981e+02
756	3.23314e+02	7.56000e+02	2.73036e+00	3.23981e+02
758	3.26337e+02	7.58000e+02	2.71909e+00	3.26981e+02
760	3.29340e+02	7.60000e+02	2.70708e+00	3.29980e+02
762	3.32387e+02	7.62000e+02	2.69463e+00	3.32980e+02
764	3.35401e+02	7.64000e+02	2.68129e+00	3.35980e+02
766	3.38457e+02	7.66000e+02	2.66713e+00	3.38980e+02
768	3.41512e+02	7.68000e+02	2.65138e+00	3.41979e+02
770	3.44566e+02	7.70000e+02	2.63414e+00	3.44979e+02
772	3.47637e+02	7.72000e+02	2.61438e+00	3.47979e+02
774	3.50649e+02	7.74000e+02	2.59291e+00	3.50979e+02
776	3.53654e+02	7.76000e+02	2.56644e+00	3.53978e+02
778	3.56669e+02	7.78000e+02	2.53619e+00	3.56978e+02
780	3.59653e+02	7.80000e+02	2.50065e+00	3.59978e+02
782	3.62617e+02	7.82000e+02	2.46089e+00	3.62978e+02
784	3.65598e+02	7.84000e+02	2.41270e+00	3.65977e+02
786	3.68544e+02	7.86000e+02	2.36067e+00	3.68977e+02
788	3.71475e+02	7.88000e+02	2.29973e+00	3.71977e+02
790	3.74419e+02	7.90000e+02	2.23482e+00	3.74977e+02
792	3.77351e+02	7.92000e+02	2.16094e+00	3.77976e+02
794	3.80330e+02	7.94000e+02	2.08342e+00	3.80976e+02
796	3.83395e+02	7.96000e+02	1.99746e+00	3.83976e+02
798	3.86333e+02	7.98000e+02	1.90791e+00	3.86976e+02
800	3.89294e+02	8.00000e+02	1.81284e+00	3.89975e+02
802	3.92241e+02	8.02000e+02	1.71319e+00	3.92975e+02
804	3.95218e+02	8.04000e+02	1.60847e+00	3.95975e+02
806	3.98219e+02	8.06000e+02	1.50008e+00	3.98975e+02
808	4.01132e+02	8.08000e+02	1.38924e+00	4.01974e+02
810	4.04156e+02	8.10000e+02	1.27728e+00	4.04974e+02
812	4.07207e+02	8.12000e+02	1.16400e+00	4.07974e+02
814	4.10120e+02	8.14000e+02	1.05101e+00	4.10974e+02
816	4.13114e+02	8.16000e+02	9.39070e-01	4.13973e+02
818	4.16063e+02	8.18000e+02	8.28786e-01	4.16973e+02
820	4.19046e+02	8.20000e+02	7.21133e-01	4.19973e+02
822	4.22048e+02	8.22000e+02	6.17653e-01	4.22973e+02
824	4.25119e+02	8.24000e+02	5.22525e-01	4.25972e+02
826	4.28237e+02	8.26000e+02	4.35021e-01	4.28972e+02
828	4.31468e+02	8.28000e+02	3.56821e-01	4.31972e+02
830	4.34506e+02	8.30000e+02	2.88467e-01	4.34972e+02
832	4.37585e+02	8.32000e+02	2.30927e-01	4.37971e+02
834	4.40636e+02	8.34000e+02	1.81807e-01	4.40971e+02
836	4.43665e+02	8.36000e+02	1.42211e-01	4.43971e+02
838	4.46717e+02	8.38000e+02	1.10276e-01	4.46971e+02
840	4.49779e+02	8.40000e+02	8.66761e-02	4.49970e+02
842	4.52828e+02	8.42000e+02	6.63500e-02	4.52970e+02
844	4.55860e+02	8.44000e+02	5.33182e-02	4.55970e+02
846	4.58819e+02	8.46000e+02	4.35684e-02	4.58970e+02
848	4.61736e+02	8.48000e+02	3.65147e-02	4.61970e+02
850	4.64675e+02	8.50000e+02	3.08372e-02	4.64969e+02
852	4.67645e+02	8.52000e+02	2.72001e-02	4.67969e+02
854	4.70663e+02	8.54000e+02	2.43319e-02	4.70969e+02
856	4.73690e+02	8.56000e+02	2.26190e-02	4.73969e+02
858	4.76633e+02	8.58000e+02	2.12681e-02	4.76968e+02
860	4.79599e+02	8.60000e+02	2.04811e-02	4.79968e+02
862	4.82543e+02	8.62000e+02	1.98829e-02	4.82968e+02
864	4.85491e+02	8.64000e+02	1.95576e-02	4.85968e+02
866	4.88457e+02	8.66000e+02	1.92997e-02	4.88967e+02
868	4.91439e+02	8.68000e+02	1.91562e-02	4.91967e+02
870	4.94401e+02	8.70000e+02	1.90553e-02	4.94967e+02
872	4.97385e+02	8.72000e+02	1.90004e-02	4.97967e+02
874	5.00360e+02	8.74000e+02	1.89389e-02	5.00966e+02
876	5.03321e+02	8.76000e+02	1.88917e-02	5.03966e+02
878	5.06252e+02	8.78000e+02	1.88858e-02	5.06966e+02
880	5.09216e+02	8.80000e+02	1.89216e-02	5.09966e+02
882	5.12101e+02	8.82000e+02	1.89345e-02	5.12965e+02
884	5.14980e+02	8.84000e+02	1.89180e-02	5.15965e+02
886	5.17845e+02	8.86000e+02	1.88951e-02	5.18965e+02
888	5.20720e+02	8.88000e+02	1.88556e-02	5.21965e+02
890	5.23645e+02	8.90000e+02	1.88006e-02	5.24964e+02
892	5.26556e+02	8.92000e+02	1.87258e-02	5.27964e+02
894	5.29375e+02	8.94000e+02	1.86554e-02	5.30964e+02
896	5.32201e+02	8.96000e+02	1.85947e-02	5.33964e+02
898	5.34973e+02	8.98000e+02	1.85457e-02	5.36963e+02
900	5.37700e+02	9.00000e+02	1.85121e-02	5.39963e+02
902	5.40565e+02	9.02000e+02	1.84826e-02	5.42963e+02
904	5.43486e+02	9.04000e+02	1.84544e-02	5.45963e+02
906	5.46430e+02	9.06000e+02	1.84186e-02	5.48962e+02
908	5.49317e+02	9.08000e+02	1.83753e-02	5.51962e+02
910	5.52273e+02	9.10000e+02	1.83380e-02	5.54962e+02
912	5.55108e+02	9.12000e+02	1.83151e-02	5.57962e+02
914	5.58023e+02	9.14000e+02	1.83015e-02	5.60961e+02
916	5.60977e+02	9.16000e+02	1.82936e-02	5.63961e+02
918	5.63933e+02	9.18000e+02	1.82842e-02	5.66961e+02
920	5.66832e+02	9.20000e+02	1.82801e-02	5.69961e+02
922	5.69746e+02	9.22000e+02	1.82913e-02	5.72960e+02
924	5.72604e+02	9.24000e+02	1.83216e-02	5.75960e+02
926	5.75488e+02	9.26000e+02	1.83528e-02	5.78960e+02
928	5.78328e+02	9.28000e+02	1.83787e-02	5.81960e+02
930	5.81302e+02	9.30000e+02	1.83911e-02	5.84959e+02
932	5.83920e+02	9.32000e+02	1.83835e-02	5.87959e+02
934	5.86639e+02	9.34000e+02	1.83743e-02	5.90959e+02
936	5.89496e+02	9.36000e+02	1.83680e-02	5.93959e+02
938	5.92407e+02	9.38000e+02	1.83623e-02	5.96958e+02
940	5.95276e+02	9.40000e+02	1.83543e-02	5.99958e+02
942	5.98154e+02	9.42000e+02	1.83371e-02	6.02958e+02
944	6.01063e+02	9.44000e+02	1.83152e-02	6.05958e+02
946	6.04001e+02	9.46000e+02	1.83050e-02	6.08957e+02
948	6.06900e+02	9.48000e+02	1.83148e-02	6.11957e+02
950	6.09792e+02	9.50000e+02	1.83257e-02	6.14957e+02
952	6.12751e+02	9.52000e+02	1.83225e-02	6.17957e+02
954	6.15717e+02	9.54000e+02	1.82975e-02	6.20956e+02
956	6.18683e+02	9.56000e+02	1.82532e-02	6.23956e+02
958	6.21655e+02	9.58000e+02	1.82264e-02	6.26956e+02
960	6.24668e+02	9.60000e+02	1.82180e-02	6.29956e+02
962	6.27667e+02	9.62000e+02	1.82126e-02	6.32956e+02
964	6.30587e+02	9.64000e+02	1.82179e-02	6.35955e+02
966	6.33729e+02	9.66000e+02	1.82319e-02	6.38955e+02
968	6.36895e+02	9.68000e+02	1.82382e-02	6.41955e+02
970	6.40523e+02	9.70000e+02	1.82136e-02	6.44954e+02
972	6.43571e+02	9.72000e+02	1.81559e-02	6.47954e+02
974	6.46306e+02	9.74000e+02	1.81076e-02	6.50954e+02
976	6.49210e+02	9.76000e+02	1.80634e-02	6.53954e+02
978	6.52113e+02	9.78000e+02	1.80173e-02	6.56953e+02
980	6.54977e+02	9.80000e+02	1.79909e-02	6.59953e+02
982	6.56803e+02	9.82000e+02	1.80186e-02	6.62953e+02
984	6.58389e+02	9.84000e+02	1.81319e-02	6.65953e+02
986	6.60392e+02	9.86000e+02	1.82539e-02	6.68953e+02
988	6.62377e+02	9.88000e+02	1.83668e-02	6.71952e+02
990	6.64218e+02	9.90000e+02	1.84292e-02	6.74952e+02
992	6.65984e+02	9.92000e+02	1.84003e-02	6.77952e+02
994	6.67652e+02	9.94000e+02	1.83304e-02	6.80952e+02
996	6.69278e+02	9.96000e+02	1.82182e-02	6.83951e+02
998	6.70981e+02	9.98000e+02	1.81421e-02	6.86951e+02
1000	6.72476e+02	1.00000e+03	1.81152e-02	6.89951e+02
1002	6.73954e+02	1.00200e+03	1.80703e-02	6.92951e+02
1004	6.75273e+02	1.00400e+03	1.80403e-02	6.95950e+02
1006	6.76645e+02	1.00600e+03	1.80070e-02	6.98950e+02
1007	6.77292e+02	1.00700e+03	1.79919e-02	7.00000e+02