File: Experiments/TUBS/tga_nonisotherm/tga_dynamic_n2_dyn30_powder_12mg_r3.txt
index	ts	t	weight	tr
[#]	[°C]	[s]	[mg]	[°C]
683	1.30824e+02	6.83000e+02	1.20573e+01	1.31500e+02
689	1.33844e+02	6.89000e+02	1.20565e+01	1.34500e+02
695	1.36858e+02	6.95000e+02	1.20554e+01	1.37500e+02
701	1.39871e+02	7.01000e+02	1.20540e+01	1.40500e+02
707	1.42887e+02	7.07000e+02	1.20521e+01	1.43500e+02
713	1.45897e+02	7.13000e+02	1.20497e+01	1.46500e+02
719	1.48919e+02	7.19000e+02	1.20468e+01	1.49500e+02
725	1.51947e+02	7.25000e+02	1.20431e+01	1.52500e+02
731	1.54960e+02	7.31000e+02	1.20389e+01	1.55500e+02
737	1.57983e+02	7.37000e+02	1.20341e+01	1.58500e+02
743	1.61020e+02	7.43000e+02	1.20288e+01	1.61500e+02
749	1.64048e+02	7.49000e+02	1.20229e+01	1.64500e+02
755	1.67066e+02	7.55000e+02	1.20163e+01	1.67500e+02
761	1.70101e+02	7.61000e+02	1.20086e+01	1.70500e+02
767	1.73123e+02	7.67000e+02	1.19994e+01	1.73500e+02
773	1.76157e+02	7.73000e+02	1.19878e+01	1.76500e+02
779	1.79172e+02	7.79000e+02	1.19732e+01	1.79500e+02
785	1.82190e+02	7.85000e+02	1.19540e+01	1.82500e+02
791	1.85217e+02	7.91000e+02	1.19300e+01	1.85500e+02
797	1.88228e+02	7.97000e+02	1.18999e+01	1.88500e+02
803	1.91267e+02	8.03000e+02	1.18649e+01	1.91500e+02
809	1.94297e+02	8.09000e+02	1.18251e+01	1.94500e+02
815	1.97336e+02	8.15000e+02	1.17827e+01	1.97500e+02
821	2.00393e+02	8.21000e+02	1.17394e+01	2.00500e+02
827	2.03469e+02	8.27000e+02	1.16971e+01	2.03500e+02
833	2.06540e+02	8.33000e+02	1.16588e+01	2.06500e+02
839	2.09605e+02	8.39000e+02	1.16258e+01	2.09500e+02
845	2.12683e+02	8.45000e+02	1.15998e+01	2.12500e+02
851	2.15764e+02	8.51000e+02	1.15799e+01	2.15500e+02
857	2.18884e+02	8.57000e+02	1.15656e+01	2.18500e+02
863	2.22091e+02	8.63000e+02	1.15540e+01	2.21500e+02
869	2.25206e+02	8.69000e+02	1.15442e+01	2.24500e+02
875	2.28260e+02	8.75000e+02	1.15347e+01	2.27500e+02
881	2.31341e+02	8.81000e+02	1.15253e+01	2.30500e+02
887	2.34502e+02	8.87000e+02	1.15159e+01	2.33500e+02
893	2.37562e+02	8.93000e+02	1.15067e+01	2.36500e+02
899	2.40670e+02	8.99000e+02	1.14976e+01	2.39500e+02
905	2.43737e+02	9.05000e+02	1.14890e+01	2.42500e+02
911	2.46750e+02	9.11000e+02	1.14811e+01	2.45500e+02
917	2.49755e+02	9.17000e+02	1.14737e+01	2.48500e+02
923	2.52781e+02	9.23000e+02	1.14671e+01	2.51500e+02
929	2.55830e+02	9.29000e+02	1.14610e+01	2.54500e+02
935	2.58865e+02	9.35000e+02	1.14550e+01	2.57500e+02
941	2.61923e+02	9.41000e+02	1.14492e+01	2.60500e+02
947	2.65041e+02	9.47000e+02	1.14435e+01	2.63500e+02
953	2.68149e+02	9.53000e+02	1.14376e+01	2.66500e+02
959	2.71225e+02	9.59000e+02	1.14313e+01	2.69500e+02
965	2.74408e+02	9.65000e+02	1.14242e+01	2.72500e+02
971	2.77562e+02	9.71000e+02	1.14163e+01	2.75500e+02
977	2.80685e+02	9.77000e+02	1.14071e+01	2.78500e+02
983	2.83859e+02	9.83000e+02	1.13963e+01	2.81500e+02
989	2.87028e+02	9.89000e+02	1.13836e+01	2.84500e+02
995	2.90039e+02	9.95000e+02	1.13685e+01	2.87500e+02
1001	2.93076e+02	1.00100e+03	1.13500e+01	2.90500e+02
1007	2.96180e+02	1.00700e+03	1.13280e+01	2.93500e+02
1013	2.99219e+02	1.01300e+03	1.13016e+01	2.96500e+02
1019	3.02231e+02	1.01900e+03	1.12712e+01	2.99500e+02
1025	3.05305e+02	1.02500e+03	1.12360e+01	3.02500e+02
1031	3.08357e+02	1.03100e+03	1.11970e+01	3.05500e+02
1037	3.11471e+02	1.03700e+03	1.11537e+01	3.08500e+02
1043	3.14716e+02	1.04300e+03	1.11074e+01	3.11500e+02
1049	3.17749e+02	1.04900e+03	1.10584e+01	3.14500e+02
1055	3.21075e+02	1.05500e+03	1.10080e+01	3.17500e+02
1061	3.24307e+02	1.06100e+03	1.09565e+01	3.20500e+02
1067	3.27362e+02	1.06700e+03	1.09036e+01	3.23500e+02
1073	3.30425e+02	1.07300e+03	1.08477e+01	3.26500e+02
1079	3.33458e+02	1.07900e+03	1.07866e+01	3.29500e+02
1085	3.36432e+02	1.08500e+03	1.07164e+01	3.32500e+02
1091	3.39499e+02	1.09100e+03	1.06352e+01	3.35500e+02
1097	3.42535e+02	1.09700e+03	1.05379e+01	3.38500e+02
1103	3.45470e+02	1.10300e+03	1.04235e+01	3.41500e+02
1109	3.48660e+02	1.10900e+03	1.02863e+01	3.44500e+02
1115	3.51862e+02	1.11500e+03	1.01261e+01	3.47500e+02
1121	3.55077e+02	1.12100e+03	9.93834e+00	3.50500e+02
1127	3.57852e+02	1.12700e+03	9.72021e+00	3.53500e+02
1133	3.60606e+02	1.13300e+03	9.47193e+00	3.56500e+02
1139	3.63203e+02	1.13900e+03	9.19207e+00	3.59500e+02
1145	3.66044e+02	1.14500e+03	8.87838e+00	3.62500e+02
1151	3.68851e+02	1.15100e+03	8.53615e+00	3.65500e+02
1157	3.71620e+02	1.15700e+03	8.16782e+00	3.68500e+02
1163	3.74444e+02	1.16300e+03	7.78059e+00	3.71500e+02
1169	3.77236e+02	1.16900e+03	7.37631e+00	3.74500e+02
1175	3.80106e+02	1.17500e+03	6.95661e+00	3.77500e+02
1181	3.83117e+02	1.18100e+03	6.51172e+00	3.80500e+02
1187	3.86327e+02	1.18700e+03	6.04587e+00	3.83500e+02
1193	3.89049e+02	1.19300e+03	5.56317e+00	3.86500e+02
1199	3.91887e+02	1.19900e+03	5.06440e+00	3.89500e+02
1205	3.94820e+02	1.20500e+03	4.53733e+00	3.92500e+02
1211	3.97850e+02	1.21100e+03	4.00088e+00	3.95500e+02
1217	4.00920e+02	1.21700e+03	3.46797e+00	3.98500e+02
1223	4.03863e+02	1.22300e+03	2.93595e+00	4.01500e+02
1229	4.06967e+02	1.22900e+03	2.41342e+00	4.04500e+02
1235	4.10164e+02	1.23500e+03	1.91830e+00	4.07500e+02
1241	4.13295e+02	1.24100e+03	1.48068e+00	4.10500e+02
1247	4.16448e+02	1.24700e+03	1.12014e+00	4.13500e+02
1253	4.20198e+02	1.25300e+03	8.41519e-01	4.16500e+02
1259	4.23683e+02	1.25900e+03	6.30077e-01	4.19500e+02
1265	4.27100e+02	1.26500e+03	4.72029e-01	4.22500e+02
1271	4.29865e+02	1.27100e+03	3.55515e-01	4.25500e+02
1277	4.33148e+02	1.27700e+03	2.76284e-01	4.28500e+02
1283	4.36015e+02	1.28300e+03	2.19882e-01	4.31500e+02
1289	4.38954e+02	1.28900e+03	1.83285e-01	4.34500e+02
1295	4.41920e+02	1.29500e+03	1.58188e-01	4.37500e+02
1301	4.44869e+02	1.30100e+03	1.42163e-01	4.40500e+02
1307	4.47826e+02	1.30700e+03	1.31221e-01	4.43500e+02
1313	4.50826e+02	1.31300e+03	1.24181e-01	4.46500e+02
1319	4.53910e+02	1.31900e+03	1.19387e-01	4.49500e+02
1325	4.56643e+02	1.32500e+03	1.16177e-01	4.52500e+02
1331	4.59543e+02	1.33100e+03	1.14042e-01	4.55500e+02
1337	4.62259e+02	1.33700e+03	1.13045e-01	4.58500e+02
1343	4.65065e+02	1.34300e+03	1.12543e-01	4.61500e+02
1349	4.68228e+02	1.34900e+03	1.12226e-01	4.64500e+02
1355	4.72351e+02	1.35500e+03	1.11961e-01	4.67500e+02
1361	4.75444e+02	1.36100e+03	1.11777e-01	4.70500e+02
1367	4.78575e+02	1.36700e+03	1.11649e-01	4.73500e+02
1373	4.81280e+02	1.37300e+03	1.11525e-01	4.76500e+02
1379	4.83999e+02	1.37900e+03	1.11361e-01	4.79500e+02
1385	4.87159e+02	1.38500e+03	1.11265e-01	4.82500e+02
1391	4.89693e+02	1.39100e+03	1.11097e-01	4.85500e+02
1397	4.92142e+02	1.39700e+03	1.11086e-01	4.88500e+02
1403	4.95033e+02	1.40300e+03	1.11018e-01	4.91500e+02
1409	4.97855e+02	1.40900e+03	1.10632e-01	4.94500e+02
1415	5.00709e+02	1.41500e+03	1.10493e-01	4.97500e+02
1421	5.03516e+02	1.42100e+03	1.10525e-01	5.00500e+02
1427	5.06817e+02	1.42700e+03	1.10452e-01	5.03500e+02
1433	5.09708e+02	1.43300e+03	1.10396e-01	5.06500e+02
1439	5.12401e+02	1.43900e+03	1.10419e-01	5.09500e+02
1445	5.15317e+02	1.44500e+03	1.10282e-01	5.12500e+02
1451	5.18266e+02	1.45100e+03	1.09943e-01	5.15500e+02
1457	5.21216e+02	1.45700e+03	1.10112e-01	5.18500e+02
1463	5.24122e+02	1.46300e+03	1.10448e-01	5.21500e+02
1469	5.26988e+02	1.46900e+03	1.10215e-01	5.24500e+02
1475	5.29958e+02	1.47500e+03	1.10013e-01	5.27500e+02
1481	5.32886e+02	1.48100e+03	1.10081e-01	5.30500e+02
1487	5.35908e+02	1.48700e+03	1.10135e-01	5.33500e+02
1493	5.39093e+02	1.49300e+03	1.10152e-01	5.36500e+02
1499	5.42032e+02	1.49900e+03	1.09925e-01	5.39500e+02
1505	5.45193e+02	1.50500e+03	1.09809e-01	5.42500e+02
1511	5.48329e+02	1.51100e+03	1.09932e-01	5.45500e+02
1517	5.51282e+02	1.51700e+03	1.09935e-01	5.48500e+02
1523	5.54112e+02	1.52300e+03	1.09846e-01	5.51500e+02
1529	5.56826e+02	1.52900e+03	1.09719e-01	5.54500e+02
1535	5.59695e+02	1.53500e+03	1.09426e-01	5.57500e+02
1541	5.62595e+02	1.54100e+03	1.09761e-01	5.60500e+02
1547	5.65553e+02	1.54700e+03	1.09886e-01	5.63500e+02
1553	5.68522e+02	1.55300e+03	1.09739e-01	5.66500e+02
1559	5.71507e+02	1.55900e+03	1.09695e-01	5.69500e+02
1565	5.74511e+02	1.56500e+03	1.09660e-01	5.72500e+02
1571	5.77641e+02	1.57100e+03	1.09634e-01	5.75500e+02
1577	5.80686e+02	1.57700e+03	1.09823e-01	5.78500e+02
1583	5.83685e+02	1.58300e+03	1.09832e-01	5.81500e+02
1589	5.86591e+02	1.58900e+03	1.09697e-01	5.84500e+02
1595	5.89569e+02	1.59500e+03	1.09675e-01	5.87500e+02
1601	5.92478e+02	1.60100e+03	1.09730e-01	5.90500e+02
1607	5.95425e+02	1.60700e+03	1.09672e-01	5.93500e+02
1613	5.98406e+02	1.61300e+03	1.09629e-01	5.96500e+02
1619	6.01301e+02	1.61900e+03	1.09603e-01	5.99500e+02
1625	6.04418e+02	1.62500e+03	1.09505e-01	6.02500e+02
1631	6.07366e+02	1.63100e+03	1.09447e-01	6.05500e+02
1637	6.10703e+02	1.63700e+03	1.09429e-01	6.08500e+02
1643	6.13827e+02	1.64300e+03	1.09435e-01	6.11500e+02
1649	6.16491e+02	1.64900e+03	1.09545e-01	6.14500e+02
1655	6.19354e+02	1.65500e+03	1.09537e-01	6.17500e+02
1661	6.22300e+02	1.66100e+03	1.09445e-01	6.20500e+02
1667	6.25238e+02	1.66700e+03	1.09350e-01	6.23500e+02
1673	6.28203e+02	1.67300e+03	1.09375e-01	6.26500e+02
1679	6.31154e+02	1.67900e+03	1.09412e-01	6.29500e+02
1685	6.34116e+02	1.68500e+03	1.09460e-01	6.32500e+02
1691	6.37072e+02	1.69100e+03	1.09417e-01	6.35500e+02
1697	6.40057e+02	1.69700e+03	1.09409e-01	6.38500e+02
1703	6.43026e+02	1.70300e+03	1.09529e-01	6.41500e+02
1709	6.45995e+02	1.70900e+03	1.09399e-01	6.44500e+02
1715	6.49024e+02	1.71500e+03	1.09317e-01	6.47500e+02
1721	6.52073e+02	1.72100e+03	1.09110e-01	6.50500e+02
1727	6.55041e+02	1.72700e+03	1.08970e-01	6.53500e+02
1733	6.58009e+02	1.73300e+03	1.09511e-01	6.56500e+02
1739	6.60982e+02	1.73900e+03	1.09724e-01	6.59500e+02
1745	6.63909e+02	1.74500e+03	1.09386e-01	6.62500e+02
1751	6.66835e+02	1.75100e+03	1.09136e-01	6.65500e+02
1757	6.69820e+02	1.75700e+03	1.09275e-01	6.68500e+02
1763	6.72807e+02	1.76300e+03	1.09344e-01	6.71500e+02
1769	6.75769e+02	1.76900e+03	1.09375e-01	6.74500e+02
1775	6.78737e+02	1.77500e+03	1.09339e-01	6.77500e+02
1781	6.81684e+02	1.78100e+03	1.09241e-01	6.80500e+02
1787	6.84615e+02	1.78700e+03	1.09150e-01	6.83500e+02
1793	6.87563e+02	1.79300e+03	1.09048e-01	6.86500e+02
1799	6.89400e+02	1.79900e+03	1.09518e-01	6.89500e+02
1805	6.91244e+02	1.80500e+03	1.09624e-01	6.92500e+02
1811	6.92803e+02	1.81100e+03	1.09427e-01	6.95500e+02
1817	6.94013e+02	1.81700e+03	1.09409e-01	6.98500e+02
1820	6.94563e+02	1.82000e+03	1.09485e-01	7.00000e+02