File: Experiments/TUBS/tga_nonisotherm/tga_dynamic_n2_dyn30_powder_2mg_r2.txt
index	ts	t	weight	tr
[#]	[°C]	[s]	[mg]	[°C]
683	1.30911e+02	6.83000e+02	2.03789e+00	1.31500e+02
689	1.33924e+02	6.89000e+02	2.03774e+00	1.34500e+02
695	1.36924e+02	6.95000e+02	2.03754e+00	1.37500e+02
701	1.39944e+02	7.01000e+02	2.03711e+00	1.40500e+02
707	1.42960e+02	7.07000e+02	2.03676e+00	1.43500e+02
713	1.45966e+02	7.13000e+02	2.03638e+00	1.46500e+02
719	1.48998e+02	7.19000e+02	2.03581e+00	1.49500e+02
725	1.52002e+02	7.25000e+02	2.03501e+00	1.52500e+02
731	1.55022e+02	7.31000e+02	2.03402e+00	1.55500e+02
737	1.58044e+02	7.37000e+02	2.03298e+00	1.58500e+02
743	1.61056e+02	7.43000e+02	2.03199e+00	1.61500e+02
749	1.64080e+02	7.49000e+02	2.03091e+00	1.64500e+02
755	1.67086e+02	7.55000e+02	2.02990e+00	1.67500e+02
761	1.70123e+02	7.61000e+02	2.02854e+00	1.70500e+02
767	1.73171e+02	7.67000e+02	2.02693e+00	1.73500e+02
773	1.76187e+02	7.73000e+02	2.02504e+00	1.76500e+02
779	1.79228e+02	7.79000e+02	2.02274e+00	1.79500e+02
785	1.82277e+02	7.85000e+02	2.01974e+00	1.82500e+02
791	1.85310e+02	7.91000e+02	2.01606e+00	1.85500e+02
797	1.88363e+02	7.97000e+02	2.01115e+00	1.88500e+02
803	1.91400e+02	8.03000e+02	2.00570e+00	1.91500e+02
809	1.94458e+02	8.09000e+02	1.99967e+00	1.94500e+02
815	1.97507e+02	8.15000e+02	1.99349e+00	1.97500e+02
821	2.00552e+02	8.21000e+02	1.98761e+00	2.00500e+02
827	2.03587e+02	8.27000e+02	1.98218e+00	2.03500e+02
833	2.06646e+02	8.33000e+02	1.97777e+00	2.06500e+02
839	2.09704e+02	8.39000e+02	1.97420e+00	2.09500e+02
845	2.12767e+02	8.45000e+02	1.97133e+00	2.12500e+02
851	2.15816e+02	8.51000e+02	1.96921e+00	2.15500e+02
857	2.18856e+02	8.57000e+02	1.96786e+00	2.18500e+02
863	2.21919e+02	8.63000e+02	1.96645e+00	2.21500e+02
869	2.24969e+02	8.69000e+02	1.96512e+00	2.24500e+02
875	2.28017e+02	8.75000e+02	1.96369e+00	2.27500e+02
881	2.31094e+02	8.81000e+02	1.96198e+00	2.30500e+02
887	2.34145e+02	8.87000e+02	1.96019e+00	2.33500e+02
893	2.37201e+02	8.93000e+02	1.95861e+00	2.36500e+02
899	2.40276e+02	8.99000e+02	1.95719e+00	2.39500e+02
905	2.43364e+02	9.05000e+02	1.95586e+00	2.42500e+02
911	2.46441e+02	9.11000e+02	1.95446e+00	2.45500e+02
917	2.49539e+02	9.17000e+02	1.95300e+00	2.48500e+02
923	2.52631e+02	9.23000e+02	1.95177e+00	2.51500e+02
929	2.55680e+02	9.29000e+02	1.95047e+00	2.54500e+02
935	2.58745e+02	9.35000e+02	1.94935e+00	2.57500e+02
941	2.61826e+02	9.41000e+02	1.94836e+00	2.60500e+02
947	2.64893e+02	9.47000e+02	1.94785e+00	2.63500e+02
953	2.67980e+02	9.53000e+02	1.94689e+00	2.66500e+02
959	2.71056e+02	9.59000e+02	1.94510e+00	2.69500e+02
965	2.74121e+02	9.65000e+02	1.94403e+00	2.72500e+02
971	2.77239e+02	9.71000e+02	1.94288e+00	2.75500e+02
977	2.80272e+02	9.77000e+02	1.94130e+00	2.78500e+02
983	2.83323e+02	9.83000e+02	1.93940e+00	2.81500e+02
989	2.86347e+02	9.89000e+02	1.93721e+00	2.84500e+02
995	2.89387e+02	9.95000e+02	1.93465e+00	2.87500e+02
1001	2.92439e+02	1.00100e+03	1.93121e+00	2.90500e+02
1007	2.95459e+02	1.00700e+03	1.92691e+00	2.93500e+02
1013	2.98447e+02	1.01300e+03	1.92194e+00	2.96500e+02
1019	3.01366e+02	1.01900e+03	1.91581e+00	2.99500e+02
1025	3.04285e+02	1.02500e+03	1.90936e+00	3.02500e+02
1031	3.07193e+02	1.03100e+03	1.90209e+00	3.05500e+02
1037	3.10075e+02	1.03700e+03	1.89365e+00	3.08500e+02
1043	3.12952e+02	1.04300e+03	1.88445e+00	3.11500e+02
1049	3.15846e+02	1.04900e+03	1.87398e+00	3.14500e+02
1055	3.18792e+02	1.05500e+03	1.86324e+00	3.17500e+02
1061	3.21770e+02	1.06100e+03	1.85287e+00	3.20500e+02
1067	3.24780e+02	1.06700e+03	1.84277e+00	3.23500e+02
1073	3.27781e+02	1.07300e+03	1.83260e+00	3.26500e+02
1079	3.30790e+02	1.07900e+03	1.82116e+00	3.29500e+02
1085	3.33791e+02	1.08500e+03	1.80777e+00	3.32500e+02
1091	3.36788e+02	1.09100e+03	1.79229e+00	3.35500e+02
1097	3.39764e+02	1.09700e+03	1.77343e+00	3.38500e+02
1103	3.42745e+02	1.10300e+03	1.75066e+00	3.41500e+02
1109	3.45733e+02	1.10900e+03	1.72291e+00	3.44500e+02
1115	3.48710e+02	1.11500e+03	1.69018e+00	3.47500e+02
1121	3.51676e+02	1.12100e+03	1.65098e+00	3.50500e+02
1127	3.54648e+02	1.12700e+03	1.60536e+00	3.53500e+02
1133	3.57605e+02	1.13300e+03	1.55254e+00	3.56500e+02
1139	3.60574e+02	1.13900e+03	1.49301e+00	3.59500e+02
1145	3.63560e+02	1.14500e+03	1.42604e+00	3.62500e+02
1151	3.66557e+02	1.15100e+03	1.35314e+00	3.65500e+02
1157	3.69626e+02	1.15700e+03	1.27395e+00	3.68500e+02
1163	3.72615e+02	1.16300e+03	1.18934e+00	3.71500e+02
1169	3.75609e+02	1.16900e+03	1.09900e+00	3.74500e+02
1175	3.78616e+02	1.17500e+03	1.00497e+00	3.77500e+02
1181	3.81686e+02	1.18100e+03	9.08136e-01	3.80500e+02
1187	3.84652e+02	1.18700e+03	8.08072e-01	3.83500e+02
1193	3.87674e+02	1.19300e+03	7.07565e-01	3.86500e+02
1199	3.90691e+02	1.19900e+03	6.10827e-01	3.89500e+02
1205	3.93735e+02	1.20500e+03	5.19482e-01	3.92500e+02
1211	3.96797e+02	1.21100e+03	4.34269e-01	3.95500e+02
1217	3.99941e+02	1.21700e+03	3.57765e-01	3.98500e+02
1223	4.02969e+02	1.22300e+03	2.89701e-01	4.01500e+02
1229	4.05971e+02	1.22900e+03	2.31516e-01	4.04500e+02
1235	4.08971e+02	1.23500e+03	1.81978e-01	4.07500e+02
1241	4.12015e+02	1.24100e+03	1.41634e-01	4.10500e+02
1247	4.15031e+02	1.24700e+03	1.08472e-01	4.13500e+02
1253	4.18049e+02	1.25300e+03	8.26117e-02	4.16500e+02
1259	4.21053e+02	1.25900e+03	6.22185e-02	4.19500e+02
1265	4.24061e+02	1.26500e+03	4.71772e-02	4.22500e+02
1271	4.27044e+02	1.27100e+03	3.58307e-02	4.25500e+02
1277	4.30011e+02	1.27700e+03	2.79654e-02	4.28500e+02
1283	4.32999e+02	1.28300e+03	2.22445e-02	4.31500e+02
1289	4.35986e+02	1.28900e+03	1.80424e-02	4.34500e+02
1295	4.38966e+02	1.29500e+03	1.50593e-02	4.37500e+02
1301	4.41923e+02	1.30100e+03	1.32338e-02	4.40500e+02
1307	4.44859e+02	1.30700e+03	1.18578e-02	4.43500e+02
1313	4.47829e+02	1.31300e+03	1.09749e-02	4.46500e+02
1319	4.50787e+02	1.31900e+03	1.05344e-02	4.49500e+02
1325	4.53713e+02	1.32500e+03	1.00721e-02	4.52500e+02
1331	4.56637e+02	1.33100e+03	9.76733e-03	4.55500e+02
1337	4.59552e+02	1.33700e+03	9.54882e-03	4.58500e+02
1343	4.62481e+02	1.34300e+03	9.56755e-03	4.61500e+02
1349	4.65407e+02	1.34900e+03	9.58907e-03	4.64500e+02
1355	4.68320e+02	1.35500e+03	9.53077e-03	4.67500e+02
1361	4.71257e+02	1.36100e+03	9.40351e-03	4.70500e+02
1367	4.74184e+02	1.36700e+03	9.44611e-03	4.73500e+02
1373	4.77127e+02	1.37300e+03	9.35093e-03	4.76500e+02
1379	4.80053e+02	1.37900e+03	9.28253e-03	4.79500e+02
1385	4.82992e+02	1.38500e+03	9.26413e-03	4.82500e+02
1391	4.85927e+02	1.39100e+03	9.10975e-03	4.85500e+02
1397	4.88874e+02	1.39700e+03	8.95899e-03	4.88500e+02
1403	4.91815e+02	1.40300e+03	8.89081e-03	4.91500e+02
1409	4.94771e+02	1.40900e+03	8.95095e-03	4.94500e+02
1415	4.97671e+02	1.41500e+03	9.34081e-03	4.97500e+02
1421	5.00634e+02	1.42100e+03	8.16362e-03	5.00500e+02
1427	5.03582e+02	1.42700e+03	7.94446e-03	5.03500e+02
1433	5.06531e+02	1.43300e+03	8.20279e-03	5.06500e+02
1439	5.09473e+02	1.43900e+03	8.26875e-03	5.09500e+02
1445	5.12423e+02	1.44500e+03	8.19869e-03	5.12500e+02
1451	5.15397e+02	1.45100e+03	7.86142e-03	5.15500e+02
1457	5.18348e+02	1.45700e+03	8.03133e-03	5.18500e+02
1463	5.21300e+02	1.46300e+03	8.26397e-03	5.21500e+02
1469	5.24261e+02	1.46900e+03	8.06355e-03	5.24500e+02
1475	5.27209e+02	1.47500e+03	7.90555e-03	5.27500e+02
1481	5.30174e+02	1.48100e+03	7.86349e-03	5.30500e+02
1487	5.33131e+02	1.48700e+03	7.86313e-03	5.33500e+02
1493	5.36083e+02	1.49300e+03	7.74743e-03	5.36500e+02
1499	5.39063e+02	1.49900e+03	7.69047e-03	5.39500e+02
1505	5.42031e+02	1.50500e+03	7.53916e-03	5.42500e+02
1511	5.44990e+02	1.51100e+03	7.52822e-03	5.45500e+02
1517	5.47942e+02	1.51700e+03	7.55868e-03	5.48500e+02
1523	5.50901e+02	1.52300e+03	7.51811e-03	5.51500e+02
1529	5.53867e+02	1.52900e+03	7.33377e-03	5.54500e+02
1535	5.56813e+02	1.53500e+03	7.09420e-03	5.57500e+02
1541	5.59779e+02	1.54100e+03	7.45933e-03	5.60500e+02
1547	5.62745e+02	1.54700e+03	7.52248e-03	5.63500e+02
1553	5.65697e+02	1.55300e+03	7.25231e-03	5.66500e+02
1559	5.68661e+02	1.55900e+03	7.26473e-03	5.69500e+02
1565	5.71627e+02	1.56500e+03	7.18806e-03	5.72500e+02
1571	5.74586e+02	1.57100e+03	7.24976e-03	5.75500e+02
1577	5.77540e+02	1.57700e+03	7.21284e-03	5.78500e+02
1583	5.80524e+02	1.58300e+03	7.09415e-03	5.81500e+02
1589	5.83500e+02	1.58900e+03	7.28840e-03	5.84500e+02
1595	5.86487e+02	1.59500e+03	7.20969e-03	5.87500e+02
1601	5.89468e+02	1.60100e+03	7.16415e-03	5.90500e+02
1607	5.92466e+02	1.60700e+03	7.11343e-03	5.93500e+02
1613	5.95454e+02	1.61300e+03	7.08871e-03	5.96500e+02
1619	5.98463e+02	1.61900e+03	7.10237e-03	5.99500e+02
1625	6.01444e+02	1.62500e+03	7.09764e-03	6.02500e+02
1631	6.04464e+02	1.63100e+03	7.03251e-03	6.05500e+02
1637	6.07500e+02	1.63700e+03	7.08533e-03	6.08500e+02
1643	6.10465e+02	1.64300e+03	7.19068e-03	6.11500e+02
1649	6.13455e+02	1.64900e+03	7.17084e-03	6.14500e+02
1655	6.16434e+02	1.65500e+03	7.21858e-03	6.17500e+02
1661	6.19440e+02	1.66100e+03	7.23347e-03	6.20500e+02
1667	6.22461e+02	1.66700e+03	7.15737e-03	6.23500e+02
1673	6.25436e+02	1.67300e+03	7.15020e-03	6.26500e+02
1679	6.28429e+02	1.67900e+03	7.18283e-03	6.29500e+02
1685	6.31457e+02	1.68500e+03	7.01860e-03	6.32500e+02
1691	6.34474e+02	1.69100e+03	6.93892e-03	6.35500e+02
1697	6.37411e+02	1.69700e+03	7.03612e-03	6.38500e+02
1703	6.40331e+02	1.70300e+03	7.18613e-03	6.41500e+02
1709	6.43316e+02	1.70900e+03	7.05278e-03	6.44500e+02
1715	6.46274e+02	1.71500e+03	6.92351e-03	6.47500e+02
1721	6.49224e+02	1.72100e+03	6.86437e-03	6.50500e+02
1727	6.52199e+02	1.72700e+03	6.75460e-03	6.53500e+02
1733	6.55186e+02	1.73300e+03	7.10338e-03	6.56500e+02
1739	6.58147e+02	1.73900e+03	7.12523e-03	6.59500e+02
1745	6.61086e+02	1.74500e+03	6.84228e-03	6.62500e+02
1751	6.64036e+02	1.75100e+03	6.68468e-03	6.65500e+02
1757	6.66984e+02	1.75700e+03	6.75205e-03	6.68500e+02
1763	6.69940e+02	1.76300e+03	6.85132e-03	6.71500e+02
1769	6.72892e+02	1.76900e+03	6.74123e-03	6.74500e+02
1775	6.75826e+02	1.77500e+03	6.87587e-03	6.77500e+02
1781	6.78779e+02	1.78100e+03	6.93351e-03	6.80500e+02
1787	6.81758e+02	1.78700e+03	6.69847e-03	6.83500e+02
1793	6.84718e+02	1.79300e+03	6.55293e-03	6.86500e+02
1799	6.86602e+02	1.79900e+03	6.99030e-03	6.89500e+02
1805	6.88557e+02	1.80500e+03	6.87802e-03	6.92500e+02
1811	6.90144e+02	1.81100e+03	6.87157e-03	6.95500e+02
1817	6.91495e+02	1.81700e+03	6.85623e-03	6.98500e+02
1820	6.92090e+02	1.82000e+03	6.79733e-03	7.00000e+02