File: Experiments/TUBS/tga_nonisotherm/tga_dynamic_n2high50_dyn30_piece_3mg_r1.txt
Index	Ts	t	Weight	Tr
[#]	[°C]	[s]	[mg]	[°C]
682	1.30382e+02	6.82000e+02	3.0115	131.0
692	1.35398e+02	6.92000e+02	3.01173	136.0
702	1.40408e+02	7.02000e+02	3.01108	141.0
712	1.45451e+02	7.12000e+02	3.01059	146.0
722	1.50468e+02	7.22000e+02	3.01042	151.0
732	1.55505e+02	7.32000e+02	3.01023	156.0
742	1.60556e+02	7.42000e+02	3.0095	161.0
752	1.65596e+02	7.52000e+02	3.00859	166.0
762	1.70652e+02	7.62000e+02	3.00814	171.0
772	1.75725e+02	7.72000e+02	3.00758	176.0
782	1.80784e+02	7.82000e+02	3.00674	181.0
792	1.85859e+02	7.92000e+02	3.00552	186.0
802	1.90919e+02	8.02000e+02	3.00396	191.0
812	1.95988e+02	8.12000e+02	3.00172	196.0
822	2.01083e+02	8.22000e+02	2.99874	201.0
832	2.06169e+02	8.32000e+02	2.99529	206.0
842	2.11262e+02	8.42000e+02	2.9915	211.0
852	2.16347e+02	8.52000e+02	2.98751	216.0
862	2.21459e+02	8.62000e+02	2.98335	221.0
872	2.26680e+02	8.72000e+02	2.97928	226.0
882	2.31956e+02	8.82000e+02	2.97513	231.0
892	2.37049e+02	8.92000e+02	2.97097	236.0
902	2.42104e+02	9.02000e+02	2.96634	241.0
912	2.47304e+02	9.12000e+02	2.96176	246.0
922	2.52438e+02	9.22000e+02	2.95695	251.0
932	2.57535e+02	9.32000e+02	2.95196	256.0
942	2.62622e+02	9.42000e+02	2.94686	261.0
952	2.67747e+02	9.52000e+02	2.94194	266.0
962	2.72766e+02	9.62000e+02	2.93637	271.0
972	2.77723e+02	9.72000e+02	2.93086	276.0
982	2.82681e+02	9.82000e+02	2.92504	281.0
992	2.87688e+02	9.92000e+02	2.91882	286.0
1002	2.92636e+02	1.00200e+03	2.91211	291.0
1012	2.97454e+02	1.01200e+03	2.90422	296.0
1022	3.02351e+02	1.02200e+03	2.89458	301.0
1032	3.07207e+02	1.03200e+03	2.88315	306.0
1042	3.12097e+02	1.04200e+03	2.87008	311.0
1052	3.17110e+02	1.05200e+03	2.85505	316.0
1062	3.22108e+02	1.06200e+03	2.83736	321.0
1072	3.27122e+02	1.07200e+03	2.81663	326.0
1082	3.32288e+02	1.08200e+03	2.79272	331.0
1092	3.37390e+02	1.09200e+03	2.76641	336.0
1102	3.42476e+02	1.10200e+03	2.73698	341.0
1112	3.47626e+02	1.11200e+03	2.69836	346.0
1122	3.52731e+02	1.12200e+03	2.64512	351.0
1132	3.57871e+02	1.13200e+03	2.56907	356.0
1142	3.62806e+02	1.14200e+03	2.46224	361.0
1152	3.67707e+02	1.15200e+03	2.31478	366.0
1162	3.72622e+02	1.16200e+03	2.12789	371.0
1172	3.77578e+02	1.17200e+03	1.90588	376.0
1182	3.82575e+02	1.18200e+03	1.66041	381.0
1192	3.87547e+02	1.19200e+03	1.40139	386.0
1202	3.92566e+02	1.20200e+03	1.13659	391.0
1212	3.97581e+02	1.21200e+03	0.867635	396.0
1222	4.02669e+02	1.22200e+03	0.596894	401.0
1232	4.07835e+02	1.23200e+03	0.368376	406.0
1242	4.12925e+02	1.24200e+03	0.203898	411.0
1252	4.18013e+02	1.25200e+03	0.0966404	416.0
1262	4.23112e+02	1.26200e+03	0.0304939	421.0
1272	4.28200e+02	1.27200e+03	-0.00657653	426.0
1282	4.33227e+02	1.28200e+03	-0.0269684	431.0
1292	4.38210e+02	1.29200e+03	-0.0372582	436.0
1302	4.43175e+02	1.30200e+03	-0.0432403	441.0
1312	4.48154e+02	1.31200e+03	-0.0469157	446.0
1322	4.53043e+02	1.32200e+03	-0.0491757	451.0
1332	4.57913e+02	1.33200e+03	-0.0503063	456.0
1342	4.62791e+02	1.34200e+03	-0.0511265	461.0
1352	4.67688e+02	1.35200e+03	-0.0513511	466.0
1362	4.72612e+02	1.36200e+03	-0.0518639	471.0
1372	4.77526e+02	1.37200e+03	-0.0519573	476.0
1382	4.82494e+02	1.38200e+03	-0.0523154	481.0
1392	4.87374e+02	1.39200e+03	-0.0525903	486.0
1402	4.92224e+02	1.40200e+03	-0.0530642	491.0
1412	4.97084e+02	1.41200e+03	-0.0532668	496.0
1422	5.01970e+02	1.42200e+03	-0.0534775	501.0
1432	5.06877e+02	1.43200e+03	-0.0536887	506.0
1442	5.11784e+02	1.44200e+03	-0.0541206	511.0
1452	5.16680e+02	1.45200e+03	-0.0541884	516.0
1462	5.21596e+02	1.46200e+03	-0.0544873	521.0
1472	5.26508e+02	1.47200e+03	-0.0540732	526.0
1482	5.31405e+02	1.48200e+03	-0.0550845	531.0
1492	5.36344e+02	1.49200e+03	-0.0555032	536.0
1502	5.41335e+02	1.50200e+03	-0.055413	541.0
1512	5.46319e+02	1.51200e+03	-0.0554871	546.0
1522	5.51328e+02	1.52200e+03	-0.0558226	551.0
1532	5.56359e+02	1.53200e+03	-0.055934	556.0
1542	5.61273e+02	1.54200e+03	-0.0562222	561.0
1552	5.66227e+02	1.55200e+03	-0.0563468	566.0
1562	5.71151e+02	1.56200e+03	-0.0563887	571.0
1572	5.76303e+02	1.57200e+03	-0.0564369	576.0
1582	5.81612e+02	1.58200e+03	-0.0565567	581.0
1592	5.87507e+02	1.59200e+03	-0.0564516	586.0
1602	5.92459e+02	1.60200e+03	-0.0565702	591.0
1612	5.97398e+02	1.61200e+03	-0.0567129	596.0
1622	6.02280e+02	1.62200e+03	-0.0566275	601.0
1632	6.07191e+02	1.63200e+03	-0.0567096	606.0
1642	6.12119e+02	1.64200e+03	-0.0567984	611.0
1652	6.17042e+02	1.65200e+03	-0.0567871	616.0
1662	6.21964e+02	1.66200e+03	-0.0569188	621.0
1672	6.26895e+02	1.67200e+03	-0.0569127	626.0
1682	6.31830e+02	1.68200e+03	-0.0570168	631.0
1692	6.36803e+02	1.69200e+03	-0.057079	636.0
1702	6.41760e+02	1.70200e+03	-0.0571611	641.0
1712	6.46810e+02	1.71200e+03	-0.0573183	646.0
1722	6.51710e+02	1.72200e+03	-0.0573579	651.0
1732	6.56549e+02	1.73200e+03	-0.0573797	656.0
1742	6.61465e+02	1.74200e+03	-0.0574247	661.0
1752	6.66361e+02	1.75200e+03	-0.0576402	666.0
1762	6.71255e+02	1.76200e+03	-0.057469	671.0
1772	6.76127e+02	1.77200e+03	-0.057414	676.0
1782	6.81071e+02	1.78200e+03	-0.0571966	681.0
1792	6.85945e+02	1.79200e+03	-0.0573209	686.0
1802	6.89411e+02	1.80200e+03	-0.0575187	691.0
1812	6.92188e+02	1.81200e+03	-0.0576312	696.0
1822	6.94180e+02	1.82200e+03	-0.0575203	700.0
1832	6.95680e+02	1.83200e+03	-0.0576019	700.0
1842	6.96803e+02	1.84200e+03	-0.0577634	700.0
1852	6.97672e+02	1.85200e+03	-0.0576481	700.0
1862	6.98318e+02	1.86200e+03	-0.0577752	700.0
1872	6.98823e+02	1.87200e+03	-0.0576294	700.0
1882	6.99225e+02	1.88200e+03	-0.0577431	700.0
1892	6.99517e+02	1.89200e+03	-0.0578645	700.0
1902	6.99734e+02	1.90200e+03	-0.0577892	700.0
1912	6.99917e+02	1.91200e+03	-0.0576535	700.0
1922	7.00038e+02	1.92200e+03	-0.0582282	700.0
1932	7.00157e+02	1.93200e+03	-0.0575859	700.0
1942	7.00251e+02	1.94200e+03	-0.0584083	700.0
1952	7.00335e+02	1.95200e+03	-0.0579399	700.0
1962	7.00396e+02	1.96200e+03	-0.0581414	700.0
1972	7.00454e+02	1.97200e+03	-0.0578495	700.0
1982	7.00495e+02	1.98200e+03	-0.0576087	700.0
1992	7.00516e+02	1.99200e+03	-0.0578931	700.0
2002	7.00553e+02	2.00200e+03	-0.0581453	700.0
2012	7.00589e+02	2.01200e+03	-0.0580965	700.0
2022	7.00577e+02	2.02200e+03	-0.0581459	700.0
2032	7.00601e+02	2.03200e+03	-0.0582804	700.0
2042	7.00608e+02	2.04200e+03	-0.0582848	700.0
2052	7.00613e+02	2.05200e+03	-0.0582114	700.0
2062	7.00618e+02	2.06200e+03	-0.0581872	700.0
2072	7.00622e+02	2.07200e+03	-0.0582036	700.0
2082	7.00630e+02	2.08200e+03	-0.0582519	700.0
2092	7.00630e+02	2.09200e+03	-0.0582029	700.0
2102	7.00629e+02	2.10200e+03	-0.0582282	700.0
2112	7.00634e+02	2.11200e+03	-0.05832	700.0
2122	7.00636e+02	2.12200e+03	-0.0580563	700.0
2132	7.00634e+02	2.13200e+03	-0.058158	700.0
2142	7.00638e+02	2.14200e+03	-0.0584123	700.0
2152	7.00639e+02	2.15200e+03	-0.0584947	700.0
2162	7.00626e+02	2.16200e+03	-0.058478	700.0
2172	7.00626e+02	2.17200e+03	-0.0584486	700.0
2182	7.00635e+02	2.18200e+03	-0.058362	700.0
2192	7.00632e+02	2.19200e+03	-0.058399	700.0
2202	7.00628e+02	2.20200e+03	-0.0584873	700.0
2212	7.00610e+02	2.21200e+03	-0.0584796	700.0
2222	7.00611e+02	2.22200e+03	-0.0582608	700.0
2232	7.00595e+02	2.23200e+03	-0.058568	700.0
2242	7.00595e+02	2.24200e+03	-0.0586437	700.0
2252	7.00587e+02	2.25200e+03	-0.0586498	700.0
2262	7.00588e+02	2.26200e+03	-0.0586307	700.0
2272	7.00573e+02	2.27200e+03	-0.0587545	700.0
2282	7.00573e+02	2.28200e+03	-0.0586938	700.0
2292	7.00579e+02	2.29200e+03	-0.0586517	700.0
2302	7.00564e+02	2.30200e+03	-0.0589915	700.0
2312	7.00565e+02	2.31200e+03	-0.0589761	700.0
2322	7.00560e+02	2.32200e+03	-0.0588705	700.0
2332	7.00555e+02	2.33200e+03	-0.0587114	700.0
2342	7.00548e+02	2.34200e+03	-0.0588959	700.0
2352	7.00540e+02	2.35200e+03	-0.0589938	700.0
2362	7.00541e+02	2.36200e+03	-0.0590012	700.0
2372	7.00547e+02	2.37200e+03	-0.0592111	700.0
2382	7.00538e+02	2.38200e+03	-0.0590964	700.0
2392	7.00538e+02	2.39200e+03	-0.0590829	700.0
2402	7.00517e+02	2.40200e+03	-0.0591193	700.0
2412	7.00528e+02	2.41200e+03	-0.0590875	700.0
2422	7.00519e+02	2.42200e+03	-0.0590721	700.0
2432	7.00520e+02	2.43200e+03	-0.0591475	700.0
2442	7.00525e+02	2.44200e+03	-0.0591367	700.0
2452	7.00519e+02	2.45200e+03	-0.0591404	700.0
2462	7.00510e+02	2.46200e+03	-0.0591076	700.0
2472	7.00507e+02	2.47200e+03	-0.0591095	700.0
2482	7.00511e+02	2.48200e+03	-0.0592037	700.0
2492	7.00499e+02	2.49200e+03	-0.0592273	700.0
2502	7.00496e+02	2.50200e+03	-0.059168	700.0
2512	7.00497e+02	2.51200e+03	-0.0592344	700.0
2522	7.00504e+02	2.52200e+03	-0.0592071	700.0
2532	7.00498e+02	2.53200e+03	-0.0591728	700.0
2542	7.00486e+02	2.54200e+03	-0.0593063	700.0
2552	7.00475e+02	2.55200e+03	-0.0592658	700.0
2562	7.00484e+02	2.56200e+03	-0.059154	700.0
2572	7.00470e+02	2.57200e+03	-0.059305	700.0
2582	7.00466e+02	2.58200e+03	-0.0593923	700.0
2592	7.00459e+02	2.59200e+03	-0.0592522	700.0
2602	7.00465e+02	2.60200e+03	-0.0592509	700.0
2612	7.00465e+02	2.61200e+03	-0.0593357	700.0
2622	7.00454e+02	2.62200e+03	-0.0593002	700.0
2632	7.00458e+02	2.63200e+03	-0.0594261	700.0
2642	7.00456e+02	2.64200e+03	-0.0594096	700.0
2652	7.00450e+02	2.65200e+03	-0.0593402	700.0
2662	7.00448e+02	2.66200e+03	-0.0593884	700.0
2672	7.00451e+02	2.67200e+03	-0.0592972	700.0
2682	7.00448e+02	2.68200e+03	-0.0593729	700.0
2692	7.00449e+02	2.69200e+03	-0.059446	700.0
2702	7.00439e+02	2.70200e+03	-0.0594067	700.0
2712	7.00434e+02	2.71200e+03	-0.0593751	700.0
2720	7.00434e+02	2.72000e+03	-0.05944	700.0