File: Experiments/TUBS/tga_nonisotherm/tga_dynamic_n2_dyn30_powdertubs_3mg_r1.txt
index	ts	t	weight	tr
[#]	[°C]	[s]	[mg]	[°C]
683	1.31837e+02	6.83000e+02	2.99354e+00	1.31500e+02
690	1.35394e+02	6.90000e+02	2.99339e+00	1.35000e+02
697	1.38955e+02	6.97000e+02	2.99324e+00	1.38500e+02
704	1.42536e+02	7.04000e+02	2.99302e+00	1.42000e+02
711	1.46096e+02	7.11000e+02	2.99285e+00	1.45500e+02
718	1.49660e+02	7.18000e+02	2.99273e+00	1.49000e+02
725	1.53240e+02	7.25000e+02	2.99233e+00	1.52500e+02
732	1.56808e+02	7.32000e+02	2.99174e+00	1.56000e+02
739	1.60394e+02	7.39000e+02	2.99110e+00	1.59500e+02
746	1.63969e+02	7.46000e+02	2.99036e+00	1.63000e+02
753	1.67547e+02	7.53000e+02	2.98951e+00	1.66500e+02
760	1.71127e+02	7.60000e+02	2.98833e+00	1.70000e+02
767	1.74701e+02	7.67000e+02	2.98693e+00	1.73500e+02
774	1.78290e+02	7.74000e+02	2.98540e+00	1.77000e+02
781	1.81870e+02	7.81000e+02	2.98325e+00	1.80500e+02
788	1.85471e+02	7.88000e+02	2.98054e+00	1.84000e+02
795	1.89061e+02	7.95000e+02	2.97703e+00	1.87500e+02
802	1.92657e+02	8.02000e+02	2.97254e+00	1.91000e+02
809	1.96264e+02	8.09000e+02	2.96723e+00	1.94500e+02
816	1.99876e+02	8.16000e+02	2.96139e+00	1.98000e+02
823	2.03479e+02	8.23000e+02	2.95518e+00	2.01500e+02
830	2.07067e+02	8.30000e+02	2.94874e+00	2.05000e+02
837	2.10675e+02	8.37000e+02	2.94257e+00	2.08500e+02
844	2.14293e+02	8.44000e+02	2.93676e+00	2.12000e+02
851	2.17871e+02	8.51000e+02	2.93154e+00	2.15500e+02
858	2.21427e+02	8.58000e+02	2.92705e+00	2.19000e+02
865	2.25010e+02	8.65000e+02	2.92314e+00	2.22500e+02
872	2.28608e+02	8.72000e+02	2.91975e+00	2.26000e+02
879	2.32146e+02	8.79000e+02	2.91656e+00	2.29500e+02
886	2.35686e+02	8.86000e+02	2.91372e+00	2.33000e+02
893	2.39246e+02	8.93000e+02	2.91117e+00	2.36500e+02
900	2.42744e+02	9.00000e+02	2.90891e+00	2.40000e+02
907	2.46290e+02	9.07000e+02	2.90668e+00	2.43500e+02
914	2.49883e+02	9.14000e+02	2.90442e+00	2.47000e+02
921	2.53414e+02	9.21000e+02	2.90241e+00	2.50500e+02
928	2.56971e+02	9.28000e+02	2.90046e+00	2.54000e+02
935	2.60541e+02	9.35000e+02	2.89833e+00	2.57500e+02
942	2.64115e+02	9.42000e+02	2.89623e+00	2.61000e+02
949	2.67687e+02	9.49000e+02	2.89412e+00	2.64500e+02
956	2.71186e+02	9.56000e+02	2.89180e+00	2.68000e+02
963	2.74739e+02	9.63000e+02	2.88912e+00	2.71500e+02
970	2.78312e+02	9.70000e+02	2.88620e+00	2.75000e+02
977	2.81883e+02	9.77000e+02	2.88286e+00	2.78500e+02
984	2.85472e+02	9.84000e+02	2.87895e+00	2.82000e+02
991	2.88986e+02	9.91000e+02	2.87459e+00	2.85500e+02
998	2.92501e+02	9.98000e+02	2.86946e+00	2.89000e+02
1005	2.96066e+02	1.00500e+03	2.86321e+00	2.92500e+02
1012	2.99530e+02	1.01200e+03	2.85575e+00	2.96000e+02
1019	3.02984e+02	1.01900e+03	2.84731e+00	2.99500e+02
1026	3.06396e+02	1.02600e+03	2.83754e+00	3.03000e+02
1033	3.09770e+02	1.03300e+03	2.82667e+00	3.06500e+02
1040	3.13110e+02	1.04000e+03	2.81470e+00	3.10000e+02
1047	3.16420e+02	1.04700e+03	2.80188e+00	3.13500e+02
1054	3.19805e+02	1.05400e+03	2.78846e+00	3.17000e+02
1061	3.23106e+02	1.06100e+03	2.77437e+00	3.20500e+02
1068	3.26446e+02	1.06800e+03	2.75883e+00	3.24000e+02
1075	3.29906e+02	1.07500e+03	2.74195e+00	3.27500e+02
1082	3.33410e+02	1.08200e+03	2.72455e+00	3.31000e+02
1089	3.36924e+02	1.08900e+03	2.70547e+00	3.34500e+02
1096	3.40413e+02	1.09600e+03	2.68287e+00	3.38000e+02
1103	3.43913e+02	1.10300e+03	2.65529e+00	3.41500e+02
1110	3.47419e+02	1.11000e+03	2.62065e+00	3.45000e+02
1117	3.50928e+02	1.11700e+03	2.57750e+00	3.48500e+02
1124	3.54437e+02	1.12400e+03	2.52382e+00	3.52000e+02
1131	3.57825e+02	1.13100e+03	2.45827e+00	3.55500e+02
1138	3.61279e+02	1.13800e+03	2.37825e+00	3.59000e+02
1145	3.64653e+02	1.14500e+03	2.28265e+00	3.62500e+02
1152	3.68049e+02	1.15200e+03	2.17109e+00	3.66000e+02
1159	3.71473e+02	1.15900e+03	2.04377e+00	3.69500e+02
1166	3.74896e+02	1.16600e+03	1.89943e+00	3.73000e+02
1173	3.78361e+02	1.17300e+03	1.74105e+00	3.76500e+02
1180	3.81826e+02	1.18000e+03	1.57327e+00	3.80000e+02
1187	3.85364e+02	1.18700e+03	1.39785e+00	3.83500e+02
1194	3.88922e+02	1.19400e+03	1.21375e+00	3.87000e+02
1201	3.92448e+02	1.20100e+03	1.02682e+00	3.90500e+02
1208	3.95994e+02	1.20800e+03	8.50654e-01	3.94000e+02
1215	3.99556e+02	1.21500e+03	6.89978e-01	3.97500e+02
1222	4.03097e+02	1.22200e+03	5.49043e-01	4.01000e+02
1229	4.06765e+02	1.22900e+03	4.28910e-01	4.04500e+02
1236	4.10334e+02	1.23600e+03	3.29368e-01	4.08000e+02
1243	4.13873e+02	1.24300e+03	2.48623e-01	4.11500e+02
1250	4.17414e+02	1.25000e+03	1.85671e-01	4.15000e+02
1257	4.20970e+02	1.25700e+03	1.37098e-01	4.18500e+02
1264	4.24604e+02	1.26400e+03	1.00542e-01	4.22000e+02
1271	4.28166e+02	1.27100e+03	7.32705e-02	4.25500e+02
1278	4.31747e+02	1.27800e+03	5.34286e-02	4.29000e+02
1285	4.35244e+02	1.28500e+03	3.88163e-02	4.32500e+02
1292	4.38722e+02	1.29200e+03	2.80264e-02	4.36000e+02
1299	4.42211e+02	1.29900e+03	1.97078e-02	4.39500e+02
1306	4.45668e+02	1.30600e+03	1.33633e-02	4.43000e+02
1313	4.49132e+02	1.31300e+03	8.42615e-03	4.46500e+02
1320	4.52616e+02	1.32000e+03	4.82550e-03	4.50000e+02
1327	4.56131e+02	1.32700e+03	2.49051e-03	4.53500e+02
1334	4.59657e+02	1.33400e+03	1.31822e-03	4.57000e+02
1341	4.63123e+02	1.34100e+03	8.04086e-04	4.60500e+02
1348	4.66550e+02	1.34800e+03	4.88954e-04	4.64000e+02
1355	4.69991e+02	1.35500e+03	1.22732e-04	4.67500e+02
1362	4.73417e+02	1.36200e+03	-1.91306e-04	4.71000e+02
1369	4.76840e+02	1.36900e+03	-2.82993e-04	4.74500e+02
1376	4.80229e+02	1.37600e+03	-4.29790e-04	4.78000e+02
1383	4.83620e+02	1.38300e+03	-6.49285e-04	4.81500e+02
1390	4.86991e+02	1.39000e+03	-7.86639e-04	4.85000e+02
1397	4.90370e+02	1.39700e+03	-9.21383e-04	4.88500e+02
1404	4.93762e+02	1.40400e+03	-1.04425e-03	4.92000e+02
1411	4.97190e+02	1.41100e+03	-1.34228e-03	4.95500e+02
1418	5.00622e+02	1.41800e+03	-1.46955e-03	4.99000e+02
1425	5.04048e+02	1.42500e+03	-1.57501e-03	5.02500e+02
1432	5.07493e+02	1.43200e+03	-1.74029e-03	5.06000e+02
1439	5.10958e+02	1.43900e+03	-1.78742e-03	5.09500e+02
1446	5.14423e+02	1.44600e+03	-1.96379e-03	5.13000e+02
1453	5.17904e+02	1.45300e+03	-2.36912e-03	5.16500e+02
1460	5.21352e+02	1.46000e+03	-2.02448e-03	5.20000e+02
1467	5.24841e+02	1.46700e+03	-2.05733e-03	5.23500e+02
1474	5.28305e+02	1.47400e+03	-2.28631e-03	5.27000e+02
1481	5.31763e+02	1.48100e+03	-2.45345e-03	5.30500e+02
1488	5.35208e+02	1.48800e+03	-2.55014e-03	5.34000e+02
1495	5.38675e+02	1.49500e+03	-2.64975e-03	5.37500e+02
1502	5.42105e+02	1.50200e+03	-2.83052e-03	5.41000e+02
1509	5.45629e+02	1.50900e+03	-2.88190e-03	5.44500e+02
1516	5.49269e+02	1.51600e+03	-3.02857e-03	5.48000e+02
1523	5.53168e+02	1.52300e+03	-3.12341e-03	5.51500e+02
1530	5.56677e+02	1.53000e+03	-3.35346e-03	5.55000e+02
1537	5.60293e+02	1.53700e+03	-3.59441e-03	5.58500e+02
1544	5.63868e+02	1.54400e+03	-3.29081e-03	5.62000e+02
1551	5.67396e+02	1.55100e+03	-3.49276e-03	5.65500e+02
1558	5.70851e+02	1.55800e+03	-3.63826e-03	5.69000e+02
1565	5.74397e+02	1.56500e+03	-3.85219e-03	5.72500e+02
1572	5.78220e+02	1.57200e+03	-3.95588e-03	5.76000e+02
1579	5.81150e+02	1.57900e+03	-4.00735e-03	5.79500e+02
1586	5.84451e+02	1.58600e+03	-4.11147e-03	5.83000e+02
1593	5.87829e+02	1.59300e+03	-4.10374e-03	5.86500e+02
1600	5.91225e+02	1.60000e+03	-4.17164e-03	5.90000e+02
1607	5.94598e+02	1.60700e+03	-4.31292e-03	5.93500e+02
1614	5.97983e+02	1.61400e+03	-4.29339e-03	5.97000e+02
1621	6.01399e+02	1.62100e+03	-4.42952e-03	6.00500e+02
1628	6.04827e+02	1.62800e+03	-4.57806e-03	6.04000e+02
1635	6.08243e+02	1.63500e+03	-4.62178e-03	6.07500e+02
1642	6.11663e+02	1.64200e+03	-4.74668e-03	6.11000e+02
1649	6.15095e+02	1.64900e+03	-4.83601e-03	6.14500e+02
1656	6.18493e+02	1.65600e+03	-4.85879e-03	6.18000e+02
1663	6.21943e+02	1.66300e+03	-4.95164e-03	6.21500e+02
1670	6.25411e+02	1.67000e+03	-5.06648e-03	6.25000e+02
1677	6.28894e+02	1.67700e+03	-5.12106e-03	6.28500e+02
1684	6.32350e+02	1.68400e+03	-5.25805e-03	6.32000e+02
1691	6.35837e+02	1.69100e+03	-5.27921e-03	6.35500e+02
1698	6.39344e+02	1.69800e+03	-5.28455e-03	6.39000e+02
1705	6.42793e+02	1.70500e+03	-5.21120e-03	6.42500e+02
1712	6.46411e+02	1.71200e+03	-5.30889e-03	6.46000e+02
1719	6.50457e+02	1.71900e+03	-5.47786e-03	6.49500e+02
1726	6.54205e+02	1.72600e+03	-5.76838e-03	6.53000e+02
1733	6.57788e+02	1.73300e+03	-5.20379e-03	6.56500e+02
1740	6.61062e+02	1.74000e+03	-5.13555e-03	6.60000e+02
1747	6.64333e+02	1.74700e+03	-5.44381e-03	6.63500e+02
1754	6.67674e+02	1.75400e+03	-5.53701e-03	6.67000e+02
1761	6.71102e+02	1.76100e+03	-5.37971e-03	6.70500e+02
1768	6.74490e+02	1.76800e+03	-5.39971e-03	6.74000e+02
1775	6.77875e+02	1.77500e+03	-5.40320e-03	6.77500e+02
1782	6.81265e+02	1.78200e+03	-5.62679e-03	6.81000e+02
1789	6.84640e+02	1.78900e+03	-5.83661e-03	6.84500e+02
1796	6.87435e+02	1.79600e+03	-5.49382e-03	6.88000e+02
1803	6.89616e+02	1.80300e+03	-5.15826e-03	6.91500e+02
1810	6.91403e+02	1.81000e+03	-5.29669e-03	6.95000e+02
1817	6.92830e+02	1.81700e+03	-5.36948e-03	6.98500e+02
1820	6.93364e+02	1.82000e+03	-5.32145e-03	7.00000e+02