File: Experiments/TUBS/tga_nonisotherm/tga_dynamic_n2_dyn60_piece_2mg_r2.txt
index	ts	t	weight	tr
[#]	[°C]	[s]	[mg]	[°C]
643	1.29962e+02	6.43000e+02	1.99563e+00	1.33000e+02
646	1.32945e+02	6.46000e+02	1.99562e+00	1.36000e+02
649	1.35916e+02	6.49000e+02	1.99565e+00	1.39000e+02
652	1.38891e+02	6.52000e+02	1.99571e+00	1.42000e+02
655	1.41866e+02	6.55000e+02	1.99573e+00	1.45000e+02
658	1.44838e+02	6.58000e+02	1.99565e+00	1.48000e+02
661	1.47827e+02	6.61000e+02	1.99550e+00	1.51000e+02
664	1.50814e+02	6.64000e+02	1.99538e+00	1.54000e+02
667	1.53787e+02	6.67000e+02	1.99530e+00	1.57000e+02
670	1.56757e+02	6.70000e+02	1.99525e+00	1.60000e+02
673	1.59718e+02	6.73000e+02	1.99520e+00	1.63000e+02
676	1.62685e+02	6.76000e+02	1.99515e+00	1.66000e+02
679	1.65644e+02	6.79000e+02	1.99512e+00	1.69000e+02
682	1.68602e+02	6.82000e+02	1.99507e+00	1.72000e+02
685	1.71572e+02	6.85000e+02	1.99499e+00	1.75000e+02
688	1.74537e+02	6.88000e+02	1.99484e+00	1.78000e+02
691	1.77508e+02	6.91000e+02	1.99467e+00	1.81000e+02
694	1.80465e+02	6.94000e+02	1.99448e+00	1.84000e+02
697	1.83440e+02	6.97000e+02	1.99428e+00	1.87000e+02
700	1.86388e+02	7.00000e+02	1.99406e+00	1.90000e+02
703	1.89356e+02	7.03000e+02	1.99379e+00	1.93000e+02
706	1.92328e+02	7.06000e+02	1.99344e+00	1.96000e+02
709	1.95321e+02	7.09000e+02	1.99298e+00	1.99000e+02
712	1.98301e+02	7.12000e+02	1.99242e+00	2.02000e+02
715	2.01282e+02	7.15000e+02	1.99175e+00	2.05000e+02
718	2.04261e+02	7.18000e+02	1.99091e+00	2.08000e+02
721	2.07258e+02	7.21000e+02	1.98991e+00	2.11000e+02
724	2.10253e+02	7.24000e+02	1.98881e+00	2.14000e+02
727	2.13271e+02	7.27000e+02	1.98764e+00	2.17000e+02
730	2.16261e+02	7.30000e+02	1.98641e+00	2.20000e+02
733	2.19282e+02	7.33000e+02	1.98511e+00	2.23000e+02
736	2.22308e+02	7.36000e+02	1.98374e+00	2.26000e+02
739	2.25366e+02	7.39000e+02	1.98232e+00	2.29000e+02
742	2.28464e+02	7.42000e+02	1.98086e+00	2.32000e+02
745	2.31510e+02	7.45000e+02	1.97940e+00	2.35000e+02
748	2.34572e+02	7.48000e+02	1.97791e+00	2.38000e+02
751	2.37583e+02	7.51000e+02	1.97641e+00	2.41000e+02
754	2.40591e+02	7.54000e+02	1.97491e+00	2.44000e+02
757	2.43606e+02	7.57000e+02	1.97339e+00	2.47000e+02
760	2.46635e+02	7.60000e+02	1.97183e+00	2.50000e+02
763	2.49648e+02	7.63000e+02	1.97023e+00	2.53000e+02
766	2.52655e+02	7.66000e+02	1.96857e+00	2.56000e+02
769	2.55679e+02	7.69000e+02	1.96687e+00	2.59000e+02
772	2.58712e+02	7.72000e+02	1.96516e+00	2.62000e+02
775	2.61741e+02	7.75000e+02	1.96342e+00	2.65000e+02
778	2.64794e+02	7.78000e+02	1.96161e+00	2.68000e+02
781	2.67853e+02	7.81000e+02	1.95973e+00	2.71000e+02
784	2.70934e+02	7.84000e+02	1.95784e+00	2.74000e+02
787	2.73949e+02	7.87000e+02	1.95592e+00	2.77000e+02
790	2.76988e+02	7.90000e+02	1.95396e+00	2.80000e+02
793	2.80017e+02	7.93000e+02	1.95194e+00	2.83000e+02
796	2.83074e+02	7.96000e+02	1.94981e+00	2.86000e+02
799	2.86136e+02	7.99000e+02	1.94756e+00	2.89000e+02
802	2.89211e+02	8.02000e+02	1.94509e+00	2.92000e+02
805	2.92256e+02	8.05000e+02	1.94252e+00	2.95000e+02
808	2.95296e+02	8.08000e+02	1.93989e+00	2.98000e+02
811	2.98340e+02	8.11000e+02	1.93719e+00	3.01000e+02
814	3.01328e+02	8.14000e+02	1.93432e+00	3.04000e+02
817	3.04353e+02	8.17000e+02	1.93123e+00	3.07000e+02
820	3.07392e+02	8.20000e+02	1.92788e+00	3.10000e+02
823	3.10408e+02	8.23000e+02	1.92425e+00	3.13000e+02
826	3.13414e+02	8.26000e+02	1.92013e+00	3.16000e+02
829	3.16402e+02	8.29000e+02	1.91559e+00	3.19000e+02
832	3.19415e+02	8.32000e+02	1.91069e+00	3.22000e+02
835	3.22489e+02	8.35000e+02	1.90548e+00	3.25000e+02
838	3.25595e+02	8.38000e+02	1.89988e+00	3.28000e+02
841	3.28723e+02	8.41000e+02	1.89401e+00	3.31000e+02
844	3.31764e+02	8.44000e+02	1.88786e+00	3.34000e+02
847	3.34825e+02	8.47000e+02	1.88144e+00	3.37000e+02
850	3.37833e+02	8.50000e+02	1.87451e+00	3.40000e+02
853	3.40846e+02	8.53000e+02	1.86697e+00	3.43000e+02
856	3.43882e+02	8.56000e+02	1.85846e+00	3.46000e+02
859	3.46891e+02	8.59000e+02	1.84878e+00	3.49000e+02
862	3.49930e+02	8.62000e+02	1.83704e+00	3.52000e+02
865	3.52940e+02	8.65000e+02	1.82333e+00	3.55000e+02
868	3.55954e+02	8.68000e+02	1.80718e+00	3.58000e+02
871	3.58933e+02	8.71000e+02	1.78831e+00	3.61000e+02
874	3.61912e+02	8.74000e+02	1.76467e+00	3.64000e+02
877	3.64909e+02	8.77000e+02	1.73646e+00	3.67000e+02
880	3.67852e+02	8.80000e+02	1.70302e+00	3.70000e+02
883	3.70816e+02	8.83000e+02	1.66429e+00	3.73000e+02
886	3.73784e+02	8.86000e+02	1.61836e+00	3.76000e+02
889	3.76780e+02	8.89000e+02	1.56401e+00	3.79000e+02
892	3.79783e+02	8.92000e+02	1.50077e+00	3.82000e+02
895	3.82766e+02	8.95000e+02	1.43266e+00	3.85000e+02
898	3.85761e+02	8.98000e+02	1.35703e+00	3.88000e+02
901	3.88699e+02	9.01000e+02	1.27610e+00	3.91000e+02
904	3.91592e+02	9.04000e+02	1.19119e+00	3.94000e+02
907	3.94517e+02	9.07000e+02	1.10365e+00	3.97000e+02
910	3.97452e+02	9.10000e+02	1.01334e+00	4.00000e+02
913	4.00409e+02	9.13000e+02	9.22088e-01	4.03000e+02
916	4.03357e+02	9.16000e+02	8.30224e-01	4.06000e+02
919	4.06344e+02	9.19000e+02	7.37868e-01	4.09000e+02
922	4.09335e+02	9.22000e+02	6.44538e-01	4.12000e+02
925	4.12330e+02	9.25000e+02	5.50533e-01	4.15000e+02
928	4.15366e+02	9.28000e+02	4.58202e-01	4.18000e+02
931	4.18388e+02	9.31000e+02	3.68912e-01	4.21000e+02
934	4.21405e+02	9.34000e+02	2.89796e-01	4.24000e+02
937	4.24435e+02	9.37000e+02	2.23650e-01	4.27000e+02
940	4.27476e+02	9.40000e+02	1.71387e-01	4.30000e+02
943	4.30500e+02	9.43000e+02	1.28282e-01	4.33000e+02
946	4.33550e+02	9.46000e+02	9.68455e-02	4.36000e+02
949	4.36585e+02	9.49000e+02	7.45080e-02	4.39000e+02
952	4.39611e+02	9.52000e+02	5.76781e-02	4.42000e+02
955	4.42632e+02	9.55000e+02	4.49546e-02	4.45000e+02
958	4.45633e+02	9.58000e+02	3.70832e-02	4.48000e+02
961	4.48639e+02	9.61000e+02	3.15045e-02	4.51000e+02
964	4.51650e+02	9.64000e+02	2.75905e-02	4.54000e+02
967	4.54681e+02	9.67000e+02	2.47669e-02	4.57000e+02
970	4.57745e+02	9.70000e+02	2.31124e-02	4.60000e+02
973	4.60779e+02	9.73000e+02	2.19182e-02	4.63000e+02
976	4.63742e+02	9.76000e+02	2.10364e-02	4.66000e+02
979	4.66750e+02	9.79000e+02	2.03592e-02	4.69000e+02
982	4.69768e+02	9.82000e+02	1.99310e-02	4.72000e+02
985	4.72771e+02	9.85000e+02	1.96415e-02	4.75000e+02
988	4.75771e+02	9.88000e+02	1.94199e-02	4.78000e+02
991	4.78717e+02	9.91000e+02	1.92211e-02	4.81000e+02
994	4.81658e+02	9.94000e+02	1.90474e-02	4.84000e+02
997	4.84624e+02	9.97000e+02	1.89193e-02	4.87000e+02
1000	4.87622e+02	1.00000e+03	1.88411e-02	4.90000e+02
1003	4.90605e+02	1.00300e+03	1.87898e-02	4.93000e+02
1006	4.93615e+02	1.00600e+03	1.87713e-02	4.96000e+02
1009	4.96566e+02	1.00900e+03	1.87618e-02	4.99000e+02
1012	4.99517e+02	1.01200e+03	1.87370e-02	5.02000e+02
1015	5.02501e+02	1.01500e+03	1.86969e-02	5.05000e+02
1018	5.05464e+02	1.01800e+03	1.86383e-02	5.08000e+02
1021	5.08442e+02	1.02100e+03	1.85804e-02	5.11000e+02
1024	5.11436e+02	1.02400e+03	1.85276e-02	5.14000e+02
1027	5.14406e+02	1.02700e+03	1.84856e-02	5.17000e+02
1030	5.17345e+02	1.03000e+03	1.84795e-02	5.20000e+02
1033	5.20273e+02	1.03300e+03	1.84989e-02	5.23000e+02
1036	5.23211e+02	1.03600e+03	1.84897e-02	5.26000e+02
1039	5.26146e+02	1.03900e+03	1.84484e-02	5.29000e+02
1042	5.29069e+02	1.04200e+03	1.83811e-02	5.32000e+02
1045	5.31991e+02	1.04500e+03	1.83413e-02	5.35000e+02
1048	5.34922e+02	1.04800e+03	1.83255e-02	5.38000e+02
1051	5.37845e+02	1.05100e+03	1.83157e-02	5.41000e+02
1054	5.40757e+02	1.05400e+03	1.82843e-02	5.44000e+02
1057	5.43695e+02	1.05700e+03	1.82055e-02	5.47000e+02
1060	5.46612e+02	1.06000e+03	1.81254e-02	5.50000e+02
1063	5.49544e+02	1.06300e+03	1.80870e-02	5.53000e+02
1066	5.52479e+02	1.06600e+03	1.81192e-02	5.56000e+02
1069	5.55415e+02	1.06900e+03	1.81631e-02	5.59000e+02
1072	5.58344e+02	1.07200e+03	1.81751e-02	5.62000e+02
1075	5.61280e+02	1.07500e+03	1.81591e-02	5.65000e+02
1078	5.64237e+02	1.07800e+03	1.81442e-02	5.68000e+02
1081	5.67199e+02	1.08100e+03	1.81742e-02	5.71000e+02
1084	5.70248e+02	1.08400e+03	1.82013e-02	5.74000e+02
1087	5.73233e+02	1.08700e+03	1.82010e-02	5.77000e+02
1090	5.76164e+02	1.09000e+03	1.81440e-02	5.80000e+02
1093	5.79114e+02	1.09300e+03	1.80784e-02	5.83000e+02
1096	5.82096e+02	1.09600e+03	1.80376e-02	5.86000e+02
1099	5.85055e+02	1.09900e+03	1.79865e-02	5.89000e+02
1102	5.88008e+02	1.10200e+03	1.79385e-02	5.92000e+02
1105	5.90939e+02	1.10500e+03	1.79423e-02	5.95000e+02
1108	5.93914e+02	1.10800e+03	1.79756e-02	5.98000e+02
1111	5.96886e+02	1.11100e+03	1.80058e-02	6.01000e+02
1114	5.99852e+02	1.11400e+03	1.80337e-02	6.04000e+02
1117	6.02849e+02	1.11700e+03	1.80737e-02	6.07000e+02
1120	6.05859e+02	1.12000e+03	1.80844e-02	6.10000e+02
1123	6.08851e+02	1.12300e+03	1.80537e-02	6.13000e+02
1126	6.11854e+02	1.12600e+03	1.79907e-02	6.16000e+02
1129	6.14870e+02	1.12900e+03	1.79439e-02	6.19000e+02
1132	6.17898e+02	1.13200e+03	1.79085e-02	6.22000e+02
1135	6.20934e+02	1.13500e+03	1.78787e-02	6.25000e+02
1138	6.23911e+02	1.13800e+03	1.78726e-02	6.28000e+02
1141	6.26870e+02	1.14100e+03	1.78708e-02	6.31000e+02
1144	6.29821e+02	1.14400e+03	1.78307e-02	6.34000e+02
1147	6.32797e+02	1.14700e+03	1.77760e-02	6.37000e+02
1150	6.35733e+02	1.15000e+03	1.77678e-02	6.40000e+02
1153	6.38689e+02	1.15300e+03	1.78436e-02	6.43000e+02
1156	6.41602e+02	1.15600e+03	1.79052e-02	6.46000e+02
1159	6.44544e+02	1.15900e+03	1.79273e-02	6.49000e+02
1162	6.47500e+02	1.16200e+03	1.78957e-02	6.52000e+02
1165	6.50460e+02	1.16500e+03	1.78630e-02	6.55000e+02
1168	6.53423e+02	1.16800e+03	1.78314e-02	6.58000e+02
1171	6.56373e+02	1.17100e+03	1.78071e-02	6.61000e+02
1174	6.59349e+02	1.17400e+03	1.77969e-02	6.64000e+02
1177	6.62321e+02	1.17700e+03	1.77989e-02	6.67000e+02
1180	6.65282e+02	1.18000e+03	1.77975e-02	6.70000e+02
1183	6.68238e+02	1.18300e+03	1.77849e-02	6.73000e+02
1186	6.69912e+02	1.18600e+03	1.77976e-02	6.76000e+02
1189	6.71982e+02	1.18900e+03	1.79092e-02	6.79000e+02
1192	6.74072e+02	1.19200e+03	1.80357e-02	6.82000e+02
1195	6.75969e+02	1.19500e+03	1.80665e-02	6.85000e+02
1198	6.77714e+02	1.19800e+03	1.79773e-02	6.88000e+02
1201	6.79299e+02	1.20100e+03	1.78834e-02	6.91000e+02
1204	6.80762e+02	1.20400e+03	1.78059e-02	6.94000e+02
1207	6.82081e+02	1.20700e+03	1.77569e-02	6.97000e+02
1210	6.83324e+02	1.21000e+03	1.77502e-02	7.00000e+02