File: Experiments/TUBS/tga_nonisotherm/tga_dynamic_n2_dyn20_piece_3mg_r3.txt
index	ts	t	weight	tr
[#]	[°C]	[s]	[mg]	[°C]
723	1.29762e+02	7.23000e+02	2.97334e+00	1.31000e+02
733	1.33083e+02	7.33000e+02	2.97320e+00	1.34333e+02
743	1.36397e+02	7.43000e+02	2.97313e+00	1.37667e+02
753	1.39734e+02	7.53000e+02	2.97290e+00	1.41000e+02
763	1.43085e+02	7.63000e+02	2.97289e+00	1.44333e+02
773	1.46416e+02	7.73000e+02	2.97278e+00	1.47667e+02
783	1.49761e+02	7.83000e+02	2.97257e+00	1.51000e+02
793	1.53118e+02	7.93000e+02	2.97239e+00	1.54333e+02
803	1.56472e+02	8.03000e+02	2.97210e+00	1.57667e+02
813	1.59841e+02	8.13000e+02	2.97187e+00	1.61000e+02
823	1.63223e+02	8.23000e+02	2.97162e+00	1.64333e+02
833	1.66580e+02	8.33000e+02	2.97137e+00	1.67667e+02
843	1.69959e+02	8.43000e+02	2.97121e+00	1.71000e+02
853	1.73344e+02	8.53000e+02	2.97081e+00	1.74333e+02
863	1.76721e+02	8.63000e+02	2.97017e+00	1.77667e+02
873	1.80105e+02	8.73000e+02	2.96946e+00	1.81000e+02
883	1.83505e+02	8.83000e+02	2.96849e+00	1.84333e+02
893	1.86888e+02	8.93000e+02	2.96723e+00	1.87667e+02
903	1.90276e+02	9.03000e+02	2.96556e+00	1.91000e+02
913	1.93658e+02	9.13000e+02	2.96364e+00	1.94333e+02
923	1.97051e+02	9.23000e+02	2.96133e+00	1.97667e+02
933	2.00433e+02	9.33000e+02	2.95874e+00	2.01000e+02
943	2.03821e+02	9.43000e+02	2.95591e+00	2.04333e+02
953	2.07217e+02	9.53000e+02	2.95290e+00	2.07667e+02
963	2.10598e+02	9.63000e+02	2.94996e+00	2.11000e+02
973	2.14001e+02	9.73000e+02	2.94718e+00	2.14333e+02
983	2.17399e+02	9.83000e+02	2.94439e+00	2.17667e+02
993	2.20803e+02	9.93000e+02	2.94166e+00	2.21000e+02
1003	2.24168e+02	1.00300e+03	2.93888e+00	2.24333e+02
1013	2.27568e+02	1.01300e+03	2.93590e+00	2.27667e+02
1023	2.30926e+02	1.02300e+03	2.93298e+00	2.31000e+02
1033	2.34334e+02	1.03300e+03	2.93005e+00	2.34333e+02
1043	2.37701e+02	1.04300e+03	2.92711e+00	2.37667e+02
1053	2.41070e+02	1.05300e+03	2.92413e+00	2.41000e+02
1063	2.44484e+02	1.06300e+03	2.92115e+00	2.44333e+02
1073	2.47893e+02	1.07300e+03	2.91817e+00	2.47667e+02
1083	2.51261e+02	1.08300e+03	2.91512e+00	2.51000e+02
1093	2.54651e+02	1.09300e+03	2.91199e+00	2.54333e+02
1103	2.58038e+02	1.10300e+03	2.90894e+00	2.57667e+02
1113	2.61410e+02	1.11300e+03	2.90591e+00	2.61000e+02
1123	2.64783e+02	1.12300e+03	2.90274e+00	2.64333e+02
1133	2.68140e+02	1.13300e+03	2.89942e+00	2.67667e+02
1143	2.71540e+02	1.14300e+03	2.89601e+00	2.71000e+02
1153	2.74909e+02	1.15300e+03	2.89224e+00	2.74333e+02
1163	2.78299e+02	1.16300e+03	2.88717e+00	2.77667e+02
1173	2.81670e+02	1.17300e+03	2.88254e+00	2.81000e+02
1183	2.85167e+02	1.18300e+03	2.87770e+00	2.84333e+02
1193	2.88618e+02	1.19300e+03	2.87208e+00	2.87667e+02
1203	2.92071e+02	1.20300e+03	2.86649e+00	2.91000e+02
1213	2.95517e+02	1.21300e+03	2.86042e+00	2.94333e+02
1223	2.98874e+02	1.22300e+03	2.85355e+00	2.97667e+02
1233	3.02295e+02	1.23300e+03	2.84582e+00	3.01000e+02
1243	3.05702e+02	1.24300e+03	2.83722e+00	3.04333e+02
1253	3.09080e+02	1.25300e+03	2.82776e+00	3.07667e+02
1263	3.12497e+02	1.26300e+03	2.81760e+00	3.11000e+02
1273	3.15964e+02	1.27300e+03	2.80670e+00	3.14333e+02
1283	3.19444e+02	1.28300e+03	2.79490e+00	3.17667e+02
1293	3.22736e+02	1.29300e+03	2.78293e+00	3.21000e+02
1303	3.25999e+02	1.30300e+03	2.77058e+00	3.24333e+02
1313	3.29296e+02	1.31300e+03	2.75694e+00	3.27667e+02
1323	3.32592e+02	1.32300e+03	2.74141e+00	3.31000e+02
1333	3.35879e+02	1.33300e+03	2.72285e+00	3.34333e+02
1343	3.39146e+02	1.34300e+03	2.69839e+00	3.37667e+02
1353	3.42423e+02	1.35300e+03	2.66970e+00	3.41000e+02
1363	3.45700e+02	1.36300e+03	2.63510e+00	3.44333e+02
1373	3.48959e+02	1.37300e+03	2.59063e+00	3.47667e+02
1383	3.52164e+02	1.38300e+03	2.53687e+00	3.51000e+02
1393	3.55401e+02	1.39300e+03	2.47062e+00	3.54333e+02
1403	3.58616e+02	1.40300e+03	2.38973e+00	3.57667e+02
1413	3.61935e+02	1.41300e+03	2.28821e+00	3.61000e+02
1423	3.65333e+02	1.42300e+03	2.16635e+00	3.64333e+02
1433	3.68654e+02	1.43300e+03	2.02633e+00	3.67667e+02
1443	3.72031e+02	1.44300e+03	1.87178e+00	3.71000e+02
1453	3.75276e+02	1.45300e+03	1.70653e+00	3.74333e+02
1463	3.78446e+02	1.46300e+03	1.53600e+00	3.77667e+02
1473	3.81717e+02	1.47300e+03	1.35784e+00	3.81000e+02
1483	3.84984e+02	1.48300e+03	1.17681e+00	3.84333e+02
1493	3.88316e+02	1.49300e+03	9.92371e-01	3.87667e+02
1503	3.91664e+02	1.50300e+03	8.13896e-01	3.91000e+02
1513	3.95001e+02	1.51300e+03	6.41885e-01	3.94333e+02
1523	3.98431e+02	1.52300e+03	4.87070e-01	3.97667e+02
1533	4.01857e+02	1.53300e+03	3.58518e-01	4.01000e+02
1543	4.05354e+02	1.54300e+03	2.56645e-01	4.04333e+02
1553	4.08833e+02	1.55300e+03	1.80289e-01	4.07667e+02
1563	4.12151e+02	1.56300e+03	1.23882e-01	4.11000e+02
1573	4.15455e+02	1.57300e+03	8.47213e-02	4.14333e+02
1583	4.18784e+02	1.58300e+03	5.80799e-02	4.17667e+02
1593	4.22107e+02	1.59300e+03	4.04491e-02	4.21000e+02
1603	4.25507e+02	1.60300e+03	2.85865e-02	4.24333e+02
1613	4.28984e+02	1.61300e+03	2.06037e-02	4.27667e+02
1623	4.32403e+02	1.62300e+03	1.50704e-02	4.31000e+02
1633	4.35714e+02	1.63300e+03	1.12771e-02	4.34333e+02
1643	4.39087e+02	1.64300e+03	8.45503e-03	4.37667e+02
1653	4.42473e+02	1.65300e+03	6.36514e-03	4.41000e+02
1663	4.45832e+02	1.66300e+03	4.85255e-03	4.44333e+02
1673	4.49227e+02	1.67300e+03	3.80645e-03	4.47667e+02
1683	4.52366e+02	1.68300e+03	3.32427e-03	4.51000e+02
1693	4.55521e+02	1.69300e+03	3.07135e-03	4.54333e+02
1703	4.58852e+02	1.70300e+03	3.08390e-03	4.57667e+02
1713	4.62048e+02	1.71300e+03	2.94931e-03	4.61000e+02
1723	4.65295e+02	1.72300e+03	2.75155e-03	4.64333e+02
1733	4.68803e+02	1.73300e+03	2.64876e-03	4.67667e+02
1743	4.72225e+02	1.74300e+03	2.55815e-03	4.71000e+02
1753	4.75311e+02	1.75300e+03	2.48584e-03	4.74333e+02
1763	4.78527e+02	1.76300e+03	2.34163e-03	4.77667e+02
1773	4.81813e+02	1.77300e+03	2.21384e-03	4.81000e+02
1783	4.85249e+02	1.78300e+03	2.23711e-03	4.84333e+02
1793	4.88497e+02	1.79300e+03	2.11626e-03	4.87667e+02
1803	4.91741e+02	1.80300e+03	2.09024e-03	4.91000e+02
1813	4.94985e+02	1.81300e+03	2.00010e-03	4.94333e+02
1823	4.98229e+02	1.82300e+03	1.91868e-03	4.97667e+02
1833	5.01478e+02	1.83300e+03	1.77923e-03	5.01000e+02
1843	5.04821e+02	1.84300e+03	1.68550e-03	5.04333e+02
1853	5.08141e+02	1.85300e+03	1.64940e-03	5.07667e+02
1863	5.11252e+02	1.86300e+03	1.64516e-03	5.11000e+02
1873	5.14388e+02	1.87300e+03	1.52184e-03	5.14333e+02
1883	5.17531e+02	1.88300e+03	1.46082e-03	5.17667e+02
1893	5.20606e+02	1.89300e+03	1.43340e-03	5.21000e+02
1903	5.23769e+02	1.90300e+03	1.38139e-03	5.24333e+02
1913	5.26905e+02	1.91300e+03	1.32623e-03	5.27667e+02
1923	5.30076e+02	1.92300e+03	1.30745e-03	5.31000e+02
1933	5.33297e+02	1.93300e+03	1.32353e-03	5.34333e+02
1943	5.36540e+02	1.94300e+03	1.36401e-03	5.37667e+02
1953	5.39804e+02	1.95300e+03	1.22132e-03	5.41000e+02
1963	5.43053e+02	1.96300e+03	1.22112e-03	5.44333e+02
1973	5.46355e+02	1.97300e+03	1.22245e-03	5.47667e+02
1983	5.49643e+02	1.98300e+03	1.17724e-03	5.51000e+02
1993	5.52967e+02	1.99300e+03	1.05755e-03	5.54333e+02
2003	5.56254e+02	2.00300e+03	1.10525e-03	5.57667e+02
2013	5.59530e+02	2.01300e+03	1.06548e-03	5.61000e+02
2023	5.62814e+02	2.02300e+03	1.10885e-03	5.64333e+02
2033	5.66108e+02	2.03300e+03	1.15389e-03	5.67667e+02
2043	5.69402e+02	2.04300e+03	1.13503e-03	5.71000e+02
2053	5.72700e+02	2.05300e+03	1.01240e-03	5.74333e+02
2063	5.75981e+02	2.06300e+03	9.29296e-04	5.77667e+02
2073	5.79279e+02	2.07300e+03	9.65770e-04	5.81000e+02
2083	5.82590e+02	2.08300e+03	8.87912e-04	5.84333e+02
2093	5.85858e+02	2.09300e+03	8.65863e-04	5.87667e+02
2103	5.89174e+02	2.10300e+03	9.71963e-04	5.91000e+02
2113	5.92575e+02	2.11300e+03	7.76745e-04	5.94333e+02
2123	5.95914e+02	2.12300e+03	8.16348e-04	5.97667e+02
2133	5.99194e+02	2.13300e+03	8.63394e-04	6.01000e+02
2143	6.02523e+02	2.14300e+03	8.64767e-04	6.04333e+02
2153	6.05929e+02	2.15300e+03	7.52534e-04	6.07667e+02
2163	6.09235e+02	2.16300e+03	8.17755e-04	6.11000e+02
2173	6.12579e+02	2.17300e+03	8.17172e-04	6.14333e+02
2183	6.15922e+02	2.18300e+03	8.07482e-04	6.17667e+02
2193	6.19201e+02	2.19300e+03	7.34383e-04	6.21000e+02
2203	6.22510e+02	2.20300e+03	8.05975e-04	6.24333e+02
2213	6.25847e+02	2.21300e+03	7.57436e-04	6.27667e+02
2223	6.29195e+02	2.22300e+03	7.02682e-04	6.31000e+02
2233	6.32528e+02	2.23300e+03	7.28438e-04	6.34333e+02
2243	6.35849e+02	2.24300e+03	6.58309e-04	6.37667e+02
2253	6.39297e+02	2.25300e+03	5.97158e-04	6.41000e+02
2263	6.42651e+02	2.26300e+03	5.80736e-04	6.44333e+02
2273	6.46014e+02	2.27300e+03	5.77383e-04	6.47667e+02
2283	6.49317e+02	2.28300e+03	6.64172e-04	6.51000e+02
2293	6.52771e+02	2.29300e+03	7.28510e-04	6.54333e+02
2303	6.56238e+02	2.30300e+03	7.60844e-04	6.57667e+02
2313	6.59581e+02	2.31300e+03	8.89648e-04	6.61000e+02
2323	6.62883e+02	2.32300e+03	8.67815e-04	6.64333e+02
2333	6.66225e+02	2.33300e+03	6.78937e-04	6.67667e+02
2343	6.69473e+02	2.34300e+03	5.47688e-04	6.71000e+02
2353	6.72735e+02	2.35300e+03	6.14644e-04	6.74333e+02
2363	6.76016e+02	2.36300e+03	6.74073e-04	6.77667e+02
2373	6.79313e+02	2.37300e+03	5.26787e-04	6.81000e+02
2383	6.82612e+02	2.38300e+03	4.97389e-04	6.84333e+02
2393	6.85904e+02	2.39300e+03	5.14524e-04	6.87667e+02
2403	6.89193e+02	2.40300e+03	5.05793e-04	6.91000e+02
2413	6.91394e+02	2.41300e+03	5.43313e-04	6.94333e+02
2423	6.93217e+02	2.42300e+03	4.08008e-04	6.97667e+02
2430	6.94188e+02	2.43000e+03	4.03302e-04	7.00000e+02