File: Experiments/TUBS/tga_nonisotherm/tga_dynamic_n2_dyn45_piece_3mg_r1.txt
index	ts	t	weight	tr
[#]	[°C]	[s]	[mg]	[°C]
657	1.32624e+02	6.57000e+02	3.02382e+00	1.32752e+02
662	1.36459e+02	6.62000e+02	3.02363e+00	1.36502e+02
667	1.40281e+02	6.67000e+02	3.02330e+00	1.40252e+02
672	1.44088e+02	6.72000e+02	3.02334e+00	1.44002e+02
677	1.47882e+02	6.77000e+02	3.02323e+00	1.47752e+02
682	1.51696e+02	6.82000e+02	3.02293e+00	1.51503e+02
687	1.55512e+02	6.87000e+02	3.02263e+00	1.55253e+02
692	1.59313e+02	6.92000e+02	3.02246e+00	1.59003e+02
697	1.63126e+02	6.97000e+02	3.02209e+00	1.62753e+02
702	1.66926e+02	7.02000e+02	3.02189e+00	1.66503e+02
707	1.70755e+02	7.07000e+02	3.02190e+00	1.70253e+02
712	1.74561e+02	7.12000e+02	3.02173e+00	1.74003e+02
717	1.78372e+02	7.17000e+02	3.02128e+00	1.77754e+02
722	1.82172e+02	7.22000e+02	3.02086e+00	1.81504e+02
727	1.85994e+02	7.27000e+02	3.02035e+00	1.85254e+02
732	1.89795e+02	7.32000e+02	3.01978e+00	1.89004e+02
737	1.93612e+02	7.37000e+02	3.01896e+00	1.92754e+02
742	1.97421e+02	7.42000e+02	3.01783e+00	1.96504e+02
747	2.01246e+02	7.47000e+02	3.01637e+00	2.00255e+02
752	2.05051e+02	7.52000e+02	3.01485e+00	2.04005e+02
757	2.08857e+02	7.57000e+02	3.01310e+00	2.07755e+02
762	2.12695e+02	7.62000e+02	3.01112e+00	2.11505e+02
767	2.16505e+02	7.67000e+02	3.00915e+00	2.15255e+02
772	2.20320e+02	7.72000e+02	3.00682e+00	2.19005e+02
777	2.24172e+02	7.77000e+02	3.00429e+00	2.22755e+02
782	2.28021e+02	7.82000e+02	3.00196e+00	2.26506e+02
787	2.31872e+02	7.87000e+02	2.99950e+00	2.30256e+02
792	2.35678e+02	7.92000e+02	2.99694e+00	2.34006e+02
797	2.39485e+02	7.97000e+02	2.99435e+00	2.37756e+02
802	2.43299e+02	8.02000e+02	2.99176e+00	2.41506e+02
807	2.47151e+02	8.07000e+02	2.98897e+00	2.45256e+02
812	2.51013e+02	8.12000e+02	2.98596e+00	2.49007e+02
817	2.54872e+02	8.17000e+02	2.98286e+00	2.52757e+02
822	2.58706e+02	8.22000e+02	2.97976e+00	2.56507e+02
827	2.62532e+02	8.27000e+02	2.97667e+00	2.60257e+02
832	2.66314e+02	8.32000e+02	2.97327e+00	2.64007e+02
837	2.70109e+02	8.37000e+02	2.96981e+00	2.67757e+02
842	2.73914e+02	8.42000e+02	2.96634e+00	2.71507e+02
847	2.77749e+02	8.47000e+02	2.96274e+00	2.75258e+02
852	2.81531e+02	8.52000e+02	2.95894e+00	2.79008e+02
857	2.85340e+02	8.57000e+02	2.95499e+00	2.82758e+02
862	2.89153e+02	8.62000e+02	2.95090e+00	2.86508e+02
867	2.92961e+02	8.67000e+02	2.94645e+00	2.90258e+02
872	2.96727e+02	8.72000e+02	2.94137e+00	2.94008e+02
877	3.00517e+02	8.77000e+02	2.93540e+00	2.97759e+02
882	3.04317e+02	8.82000e+02	2.92858e+00	3.01509e+02
887	3.08152e+02	8.87000e+02	2.92135e+00	3.05259e+02
892	3.11955e+02	8.92000e+02	2.91350e+00	3.09009e+02
897	3.15754e+02	8.97000e+02	2.90490e+00	3.12759e+02
902	3.19587e+02	9.02000e+02	2.89546e+00	3.16509e+02
907	3.23448e+02	9.07000e+02	2.88525e+00	3.20259e+02
912	3.27228e+02	9.12000e+02	2.87434e+00	3.24010e+02
917	3.30927e+02	9.17000e+02	2.86279e+00	3.27760e+02
922	3.34490e+02	9.22000e+02	2.85040e+00	3.31510e+02
927	3.38275e+02	9.27000e+02	2.83681e+00	3.35260e+02
932	3.42085e+02	9.32000e+02	2.82096e+00	3.39010e+02
937	3.45834e+02	9.37000e+02	2.80214e+00	3.42760e+02
942	3.49707e+02	9.42000e+02	2.77978e+00	3.46510e+02
947	3.53443e+02	9.47000e+02	2.75336e+00	3.50261e+02
952	3.57201e+02	9.52000e+02	2.72003e+00	3.54011e+02
957	3.60913e+02	9.57000e+02	2.67653e+00	3.57761e+02
962	3.64615e+02	9.62000e+02	2.61903e+00	3.61511e+02
967	3.68281e+02	9.67000e+02	2.54562e+00	3.65261e+02
972	3.71920e+02	9.72000e+02	2.45236e+00	3.69011e+02
977	3.75591e+02	9.77000e+02	2.34099e+00	3.72762e+02
982	3.79456e+02	9.82000e+02	2.21105e+00	3.76512e+02
987	3.83194e+02	9.87000e+02	2.06252e+00	3.80262e+02
992	3.86945e+02	9.92000e+02	1.89762e+00	3.84012e+02
997	3.90653e+02	9.97000e+02	1.72143e+00	3.87762e+02
1002	3.94330e+02	1.00200e+03	1.53713e+00	3.91512e+02
1007	3.98168e+02	1.00700e+03	1.34848e+00	3.95262e+02
1012	4.01926e+02	1.01200e+03	1.15811e+00	3.99013e+02
1017	4.05704e+02	1.01700e+03	9.63884e-01	4.02763e+02
1022	4.09620e+02	1.02200e+03	7.63949e-01	4.06513e+02
1027	4.13455e+02	1.02700e+03	5.70340e-01	4.10263e+02
1032	4.17452e+02	1.03200e+03	4.06445e-01	4.14013e+02
1037	4.21417e+02	1.03700e+03	2.77614e-01	4.17763e+02
1042	4.25255e+02	1.04200e+03	1.84525e-01	4.21514e+02
1047	4.29121e+02	1.04700e+03	1.18878e-01	4.25264e+02
1052	4.32950e+02	1.05200e+03	7.45429e-02	4.29014e+02
1057	4.36873e+02	1.05700e+03	4.48741e-02	4.32764e+02
1062	4.40727e+02	1.06200e+03	2.58412e-02	4.36514e+02
1067	4.44548e+02	1.06700e+03	1.36859e-02	4.40264e+02
1072	4.48373e+02	1.07200e+03	6.22554e-03	4.44014e+02
1077	4.52057e+02	1.07700e+03	1.16523e-03	4.47765e+02
1082	4.55789e+02	1.08200e+03	-2.30137e-03	4.51515e+02
1087	4.59451e+02	1.08700e+03	-4.71333e-03	4.55265e+02
1092	4.63145e+02	1.09200e+03	-6.07395e-03	4.59015e+02
1097	4.66868e+02	1.09700e+03	-6.87808e-03	4.62765e+02
1102	4.70582e+02	1.10200e+03	-7.37746e-03	4.66515e+02
1107	4.74311e+02	1.10700e+03	-7.59812e-03	4.70266e+02
1112	4.78122e+02	1.11200e+03	-7.86173e-03	4.74016e+02
1117	4.81762e+02	1.11700e+03	-8.13414e-03	4.77766e+02
1122	4.85325e+02	1.12200e+03	-8.26874e-03	4.81516e+02
1127	4.88946e+02	1.12700e+03	-8.38337e-03	4.85266e+02
1132	4.92540e+02	1.13200e+03	-8.36929e-03	4.89016e+02
1137	4.96113e+02	1.13700e+03	-8.47841e-03	4.92766e+02
1142	4.99701e+02	1.14200e+03	-8.67026e-03	4.96517e+02
1147	5.03374e+02	1.14700e+03	-8.67292e-03	5.00267e+02
1152	5.07051e+02	1.15200e+03	-8.67807e-03	5.04017e+02
1157	5.10722e+02	1.15700e+03	-8.91322e-03	5.07767e+02
1162	5.14380e+02	1.16200e+03	-9.07528e-03	5.11517e+02
1167	5.18060e+02	1.16700e+03	-9.28219e-03	5.15267e+02
1172	5.21709e+02	1.17200e+03	-9.52080e-03	5.19018e+02
1177	5.25351e+02	1.17700e+03	-9.64080e-03	5.22768e+02
1182	5.28967e+02	1.18200e+03	-9.79526e-03	5.26518e+02
1187	5.32619e+02	1.18700e+03	-9.87497e-03	5.30268e+02
1192	5.36247e+02	1.19200e+03	-9.97273e-03	5.34018e+02
1197	5.39920e+02	1.19700e+03	-1.00661e-02	5.37768e+02
1202	5.43561e+02	1.20200e+03	-1.02722e-02	5.41518e+02
1207	5.47205e+02	1.20700e+03	-1.04562e-02	5.45269e+02
1212	5.50917e+02	1.21200e+03	-1.05493e-02	5.49019e+02
1217	5.54524e+02	1.21700e+03	-1.06433e-02	5.52769e+02
1222	5.58115e+02	1.22200e+03	-1.07322e-02	5.56519e+02
1227	5.61768e+02	1.22700e+03	-1.09334e-02	5.60269e+02
1232	5.65467e+02	1.23200e+03	-1.10428e-02	5.64019e+02
1237	5.69206e+02	1.23700e+03	-1.10477e-02	5.67770e+02
1242	5.72946e+02	1.24200e+03	-1.11420e-02	5.71520e+02
1247	5.76656e+02	1.24700e+03	-1.12429e-02	5.75270e+02
1252	5.80394e+02	1.25200e+03	-1.13657e-02	5.79020e+02
1257	5.84783e+02	1.25700e+03	-1.15058e-02	5.82770e+02
1262	5.88196e+02	1.26200e+03	-1.16191e-02	5.86520e+02
1267	5.91877e+02	1.26700e+03	-1.16336e-02	5.90270e+02
1272	5.95528e+02	1.27200e+03	-1.16505e-02	5.94021e+02
1277	5.99216e+02	1.27700e+03	-1.18756e-02	5.97771e+02
1282	6.02974e+02	1.28200e+03	-1.18393e-02	6.01521e+02
1287	6.07029e+02	1.28700e+03	-1.16686e-02	6.05271e+02
1292	6.11182e+02	1.29200e+03	-1.17348e-02	6.09021e+02
1297	6.13634e+02	1.29700e+03	-1.18263e-02	6.12771e+02
1302	6.17228e+02	1.30200e+03	-1.19563e-02	6.16522e+02
1307	6.20943e+02	1.30700e+03	-1.21301e-02	6.20272e+02
1312	6.26268e+02	1.31200e+03	-1.21375e-02	6.24022e+02
1317	6.29725e+02	1.31700e+03	-1.20848e-02	6.27772e+02
1322	6.33344e+02	1.32200e+03	-1.20563e-02	6.31522e+02
1327	6.36953e+02	1.32700e+03	-1.21067e-02	6.35272e+02
1332	6.40552e+02	1.33200e+03	-1.23083e-02	6.39022e+02
1337	6.44168e+02	1.33700e+03	-1.24697e-02	6.42773e+02
1342	6.47802e+02	1.34200e+03	-1.25076e-02	6.46523e+02
1347	6.51559e+02	1.34700e+03	-1.24806e-02	6.50273e+02
1352	6.55846e+02	1.35200e+03	-1.24151e-02	6.54023e+02
1357	6.59172e+02	1.35700e+03	-1.24211e-02	6.57773e+02
1362	6.62894e+02	1.36200e+03	-1.23934e-02	6.61523e+02
1367	6.66428e+02	1.36700e+03	-1.24246e-02	6.65274e+02
1372	6.70121e+02	1.37200e+03	-1.25759e-02	6.69024e+02
1377	6.73802e+02	1.37700e+03	-1.26949e-02	6.72774e+02
1382	6.77506e+02	1.38200e+03	-1.29731e-02	6.76524e+02
1387	6.81242e+02	1.38700e+03	-1.30405e-02	6.80274e+02
1392	6.83409e+02	1.39200e+03	-1.27281e-02	6.84024e+02
1397	6.85904e+02	1.39700e+03	-1.25329e-02	6.87774e+02
1402	6.88097e+02	1.40200e+03	-1.25435e-02	6.91525e+02
1407	6.90938e+02	1.40700e+03	-1.24377e-02	6.95275e+02
1412	6.91813e+02	1.41200e+03	-1.23260e-02	6.99025e+02
1414	6.92256e+02	1.41400e+03	-1.23285e-02	7.00000e+02