File: Experiments/TUBS/tga_nonisotherm/tga_dynamic_n2_dyn30_piece_6mg_r2.txt
index	ts	t	weight	tr
[#]	[°C]	[s]	[mg]	[°C]
683	1.31289e+02	6.83000e+02	6.03516e+00	1.31500e+02
689	1.34297e+02	6.89000e+02	6.03454e+00	1.34500e+02
695	1.37328e+02	6.95000e+02	6.03391e+00	1.37500e+02
701	1.40344e+02	7.01000e+02	6.03312e+00	1.40500e+02
707	1.43360e+02	7.07000e+02	6.03240e+00	1.43500e+02
713	1.46376e+02	7.13000e+02	6.03207e+00	1.46500e+02
719	1.49398e+02	7.19000e+02	6.03169e+00	1.49500e+02
725	1.52423e+02	7.25000e+02	6.03086e+00	1.52500e+02
731	1.55469e+02	7.31000e+02	6.03038e+00	1.55500e+02
737	1.58495e+02	7.37000e+02	6.02960e+00	1.58500e+02
743	1.61532e+02	7.43000e+02	6.02898e+00	1.61500e+02
749	1.64554e+02	7.49000e+02	6.02847e+00	1.64500e+02
755	1.67587e+02	7.55000e+02	6.02783e+00	1.67500e+02
761	1.70639e+02	7.61000e+02	6.02725e+00	1.70500e+02
767	1.73693e+02	7.67000e+02	6.02635e+00	1.73500e+02
773	1.76739e+02	7.73000e+02	6.02552e+00	1.76500e+02
779	1.79791e+02	7.79000e+02	6.02462e+00	1.79500e+02
785	1.82824e+02	7.85000e+02	6.02337e+00	1.82500e+02
791	1.85867e+02	7.91000e+02	6.02218e+00	1.85500e+02
797	1.88903e+02	7.97000e+02	6.02044e+00	1.88500e+02
803	1.91963e+02	8.03000e+02	6.01836e+00	1.91500e+02
809	1.94994e+02	8.09000e+02	6.01680e+00	1.94500e+02
815	1.98046e+02	8.15000e+02	6.01512e+00	1.97500e+02
821	2.01092e+02	8.21000e+02	6.01270e+00	2.00500e+02
827	2.04141e+02	8.27000e+02	6.00991e+00	2.03500e+02
833	2.07181e+02	8.33000e+02	6.00670e+00	2.06500e+02
839	2.10208e+02	8.39000e+02	6.00295e+00	2.09500e+02
845	2.13225e+02	8.45000e+02	5.99905e+00	2.12500e+02
851	2.16259e+02	8.51000e+02	5.99527e+00	2.15500e+02
857	2.19307e+02	8.57000e+02	5.99150e+00	2.18500e+02
863	2.22352e+02	8.63000e+02	5.98762e+00	2.21500e+02
869	2.25423e+02	8.69000e+02	5.98391e+00	2.24500e+02
875	2.28470e+02	8.75000e+02	5.98004e+00	2.27500e+02
881	2.31551e+02	8.81000e+02	5.97597e+00	2.30500e+02
887	2.34603e+02	8.87000e+02	5.97189e+00	2.33500e+02
893	2.37672e+02	8.93000e+02	5.96776e+00	2.36500e+02
899	2.40711e+02	8.99000e+02	5.96358e+00	2.39500e+02
905	2.43752e+02	9.05000e+02	5.95924e+00	2.42500e+02
911	2.46809e+02	9.11000e+02	5.95473e+00	2.45500e+02
917	2.49867e+02	9.17000e+02	5.95013e+00	2.48500e+02
923	2.52877e+02	9.23000e+02	5.94554e+00	2.51500e+02
929	2.55900e+02	9.29000e+02	5.94077e+00	2.54500e+02
935	2.58932e+02	9.35000e+02	5.93581e+00	2.57500e+02
941	2.61951e+02	9.41000e+02	5.93073e+00	2.60500e+02
947	2.65005e+02	9.47000e+02	5.92567e+00	2.63500e+02
953	2.68027e+02	9.53000e+02	5.92054e+00	2.66500e+02
959	2.71025e+02	9.59000e+02	5.91514e+00	2.69500e+02
965	2.73973e+02	9.65000e+02	5.90958e+00	2.72500e+02
971	2.76941e+02	9.71000e+02	5.90373e+00	2.75500e+02
977	2.79929e+02	9.77000e+02	5.89631e+00	2.78500e+02
983	2.82908e+02	9.83000e+02	5.88742e+00	2.81500e+02
989	2.85915e+02	9.89000e+02	5.87914e+00	2.84500e+02
995	2.88941e+02	9.95000e+02	5.87110e+00	2.87500e+02
1001	2.91969e+02	1.00100e+03	5.86292e+00	2.90500e+02
1007	2.94996e+02	1.00700e+03	5.85344e+00	2.93500e+02
1013	2.98024e+02	1.01300e+03	5.84378e+00	2.96500e+02
1019	3.01085e+02	1.01900e+03	5.83352e+00	2.99500e+02
1025	3.04116e+02	1.02500e+03	5.82192e+00	3.02500e+02
1031	3.07168e+02	1.03100e+03	5.80930e+00	3.05500e+02
1037	3.10181e+02	1.03700e+03	5.79537e+00	3.08500e+02
1043	3.13208e+02	1.04300e+03	5.77945e+00	3.11500e+02
1049	3.16264e+02	1.04900e+03	5.76221e+00	3.14500e+02
1055	3.19319e+02	1.05500e+03	5.74466e+00	3.17500e+02
1061	3.22348e+02	1.06100e+03	5.72657e+00	3.20500e+02
1067	3.25400e+02	1.06700e+03	5.70785e+00	3.23500e+02
1073	3.28423e+02	1.07300e+03	5.68820e+00	3.26500e+02
1079	3.31427e+02	1.07900e+03	5.66732e+00	3.29500e+02
1085	3.34454e+02	1.08500e+03	5.64423e+00	3.32500e+02
1091	3.37441e+02	1.09100e+03	5.61851e+00	3.35500e+02
1097	3.40495e+02	1.09700e+03	5.58875e+00	3.38500e+02
1103	3.43469e+02	1.10300e+03	5.55366e+00	3.41500e+02
1109	3.46626e+02	1.10900e+03	5.51043e+00	3.44500e+02
1115	3.49914e+02	1.11500e+03	5.45800e+00	3.47500e+02
1121	3.52898e+02	1.12100e+03	5.39209e+00	3.50500e+02
1127	3.55957e+02	1.12700e+03	5.31023e+00	3.53500e+02
1133	3.58919e+02	1.13300e+03	5.21294e+00	3.56500e+02
1139	3.61841e+02	1.13900e+03	5.09975e+00	3.59500e+02
1145	3.64744e+02	1.14500e+03	4.96317e+00	3.62500e+02
1151	3.67638e+02	1.15100e+03	4.80204e+00	3.65500e+02
1157	3.70545e+02	1.15700e+03	4.61828e+00	3.68500e+02
1163	3.73431e+02	1.16300e+03	4.41555e+00	3.71500e+02
1169	3.76333e+02	1.16900e+03	4.19096e+00	3.74500e+02
1175	3.79283e+02	1.17500e+03	3.94817e+00	3.77500e+02
1181	3.82213e+02	1.18100e+03	3.68469e+00	3.80500e+02
1187	3.85138e+02	1.18700e+03	3.40643e+00	3.83500e+02
1193	3.88084e+02	1.19300e+03	3.11383e+00	3.86500e+02
1199	3.91326e+02	1.19900e+03	2.80834e+00	3.89500e+02
1205	3.94431e+02	1.20500e+03	2.49410e+00	3.92500e+02
1211	3.97500e+02	1.21100e+03	2.18095e+00	3.95500e+02
1217	4.00581e+02	1.21700e+03	1.86659e+00	3.98500e+02
1223	4.03581e+02	1.22300e+03	1.55623e+00	4.01500e+02
1229	4.06574e+02	1.22900e+03	1.25819e+00	4.04500e+02
1235	4.09763e+02	1.23500e+03	9.73752e-01	4.07500e+02
1241	4.13677e+02	1.24100e+03	7.16411e-01	4.10500e+02
1247	4.16967e+02	1.24700e+03	5.08523e-01	4.13500e+02
1253	4.20239e+02	1.25300e+03	3.52980e-01	4.16500e+02
1259	4.23228e+02	1.25900e+03	2.40598e-01	4.19500e+02
1265	4.26146e+02	1.26500e+03	1.65126e-01	4.22500e+02
1271	4.29114e+02	1.27100e+03	1.11687e-01	4.25500e+02
1277	4.32288e+02	1.27700e+03	7.72959e-02	4.28500e+02
1283	4.35342e+02	1.28300e+03	5.40307e-02	4.31500e+02
1289	4.38365e+02	1.28900e+03	3.96966e-02	4.34500e+02
1295	4.41446e+02	1.29500e+03	2.99638e-02	4.37500e+02
1301	4.44322e+02	1.30100e+03	2.37828e-02	4.40500e+02
1307	4.47325e+02	1.30700e+03	1.95067e-02	4.43500e+02
1313	4.50268e+02	1.31300e+03	1.68887e-02	4.46500e+02
1319	4.53029e+02	1.31900e+03	1.51446e-02	4.49500e+02
1325	4.55721e+02	1.32500e+03	1.39092e-02	4.52500e+02
1331	4.58432e+02	1.33100e+03	1.28838e-02	4.55500e+02
1337	4.61087e+02	1.33700e+03	1.22580e-02	4.58500e+02
1343	4.63888e+02	1.34300e+03	1.19976e-02	4.61500e+02
1349	4.66746e+02	1.34900e+03	1.18849e-02	4.64500e+02
1355	4.69562e+02	1.35500e+03	1.16767e-02	4.67500e+02
1361	4.72408e+02	1.36100e+03	1.14776e-02	4.70500e+02
1367	4.75339e+02	1.36700e+03	1.14041e-02	4.73500e+02
1373	4.78289e+02	1.37300e+03	1.14138e-02	4.76500e+02
1379	4.81237e+02	1.37900e+03	1.13069e-02	4.79500e+02
1385	4.84175e+02	1.38500e+03	1.11284e-02	4.82500e+02
1391	4.87142e+02	1.39100e+03	1.09528e-02	4.85500e+02
1397	4.90088e+02	1.39700e+03	1.08679e-02	4.88500e+02
1403	4.93042e+02	1.40300e+03	1.07877e-02	4.91500e+02
1409	4.95996e+02	1.40900e+03	1.05667e-02	4.94500e+02
1415	4.98973e+02	1.41500e+03	1.04626e-02	4.97500e+02
1421	5.01934e+02	1.42100e+03	1.03797e-02	5.00500e+02
1427	5.04887e+02	1.42700e+03	1.02352e-02	5.03500e+02
1433	5.07859e+02	1.43300e+03	1.01649e-02	5.06500e+02
1439	5.10824e+02	1.43900e+03	1.02526e-02	5.09500e+02
1445	5.13798e+02	1.44500e+03	1.02224e-02	5.12500e+02
1451	5.16795e+02	1.45100e+03	9.90210e-03	5.15500e+02
1457	5.19758e+02	1.45700e+03	1.00842e-02	5.18500e+02
1463	5.22701e+02	1.46300e+03	1.02883e-02	5.21500e+02
1469	5.25667e+02	1.46900e+03	1.02109e-02	5.24500e+02
1475	5.28619e+02	1.47500e+03	1.01412e-02	5.27500e+02
1481	5.31565e+02	1.48100e+03	9.98510e-03	5.30500e+02
1487	5.34532e+02	1.48700e+03	1.02296e-02	5.33500e+02
1493	5.37494e+02	1.49300e+03	9.88370e-03	5.36500e+02
1499	5.40470e+02	1.49900e+03	9.59218e-03	5.39500e+02
1505	5.43457e+02	1.50500e+03	9.65574e-03	5.42500e+02
1511	5.46372e+02	1.51100e+03	9.67078e-03	5.45500e+02
1517	5.49284e+02	1.51700e+03	9.73838e-03	5.48500e+02
1523	5.52165e+02	1.52300e+03	9.66008e-03	5.51500e+02
1529	5.55094e+02	1.52900e+03	9.41892e-03	5.54500e+02
1535	5.58031e+02	1.53500e+03	9.26620e-03	5.57500e+02
1541	5.60987e+02	1.54100e+03	9.60752e-03	5.60500e+02
1547	5.63936e+02	1.54700e+03	9.59793e-03	5.63500e+02
1553	5.66907e+02	1.55300e+03	9.55096e-03	5.66500e+02
1559	5.69879e+02	1.55900e+03	9.57888e-03	5.69500e+02
1565	5.72875e+02	1.56500e+03	9.47223e-03	5.72500e+02
1571	5.75857e+02	1.57100e+03	9.39322e-03	5.75500e+02
1577	5.78850e+02	1.57700e+03	9.34437e-03	5.78500e+02
1583	5.81883e+02	1.58300e+03	9.41846e-03	5.81500e+02
1589	5.84964e+02	1.58900e+03	9.35730e-03	5.84500e+02
1595	5.87975e+02	1.59500e+03	9.40424e-03	5.87500e+02
1601	5.90920e+02	1.60100e+03	9.37483e-03	5.90500e+02
1607	5.93874e+02	1.60700e+03	9.26643e-03	5.93500e+02
1613	5.96867e+02	1.61300e+03	9.25307e-03	5.96500e+02
1619	5.99814e+02	1.61900e+03	9.25431e-03	5.99500e+02
1625	6.02767e+02	1.62500e+03	9.16988e-03	6.02500e+02
1631	6.05735e+02	1.63100e+03	9.05265e-03	6.05500e+02
1637	6.08651e+02	1.63700e+03	8.94655e-03	6.08500e+02
1643	6.11599e+02	1.64300e+03	8.89890e-03	6.11500e+02
1649	6.14578e+02	1.64900e+03	8.88499e-03	6.14500e+02
1655	6.17532e+02	1.65500e+03	8.90199e-03	6.17500e+02
1661	6.20498e+02	1.66100e+03	8.90788e-03	6.20500e+02
1667	6.23481e+02	1.66700e+03	8.86020e-03	6.23500e+02
1673	6.26488e+02	1.67300e+03	8.85650e-03	6.26500e+02
1679	6.29464e+02	1.67900e+03	8.77469e-03	6.29500e+02
1685	6.32472e+02	1.68500e+03	8.65825e-03	6.32500e+02
1691	6.35473e+02	1.69100e+03	8.54138e-03	6.35500e+02
1697	6.38550e+02	1.69700e+03	8.58528e-03	6.38500e+02
1703	6.41588e+02	1.70300e+03	8.67241e-03	6.41500e+02
1709	6.44625e+02	1.70900e+03	8.60114e-03	6.44500e+02
1715	6.47669e+02	1.71500e+03	8.52303e-03	6.47500e+02
1721	6.50661e+02	1.72100e+03	8.23164e-03	6.50500e+02
1727	6.53648e+02	1.72700e+03	8.15315e-03	6.53500e+02
1733	6.56610e+02	1.73300e+03	8.65587e-03	6.56500e+02
1739	6.59584e+02	1.73900e+03	8.60328e-03	6.59500e+02
1745	6.62556e+02	1.74500e+03	8.35508e-03	6.62500e+02
1751	6.65548e+02	1.75100e+03	8.16561e-03	6.65500e+02
1757	6.68526e+02	1.75700e+03	8.22457e-03	6.68500e+02
1763	6.71511e+02	1.76300e+03	8.16208e-03	6.71500e+02
1769	6.74457e+02	1.76900e+03	8.05225e-03	6.74500e+02
1775	6.77425e+02	1.77500e+03	8.02960e-03	6.77500e+02
1781	6.80365e+02	1.78100e+03	7.93296e-03	6.80500e+02
1787	6.83321e+02	1.78700e+03	7.69907e-03	6.83500e+02
1793	6.86281e+02	1.79300e+03	7.60598e-03	6.86500e+02
1799	6.88129e+02	1.79900e+03	8.09998e-03	6.89500e+02
1805	6.90092e+02	1.80500e+03	8.16583e-03	6.92500e+02
1811	6.91713e+02	1.81100e+03	7.99623e-03	6.95500e+02
1817	6.93045e+02	1.81700e+03	7.89599e-03	6.98500e+02
1820	6.93634e+02	1.82000e+03	7.89417e-03	7.00000e+02