File: Experiments/TUBS/tga_nonisotherm/tga_dynamic_n2_dyn10_powder_2mg_r1.txt
index	ts	t	weight	tr
[#]	[°C]	[s]	[mg]	[°C]
843	1.30694e+02	8.43000e+02	2.01748e+00	1.30500e+02
862	1.33904e+02	8.62000e+02	2.01714e+00	1.33667e+02
881	1.37102e+02	8.81000e+02	2.01620e+00	1.36833e+02
900	1.40317e+02	9.00000e+02	2.01588e+00	1.40000e+02
919	1.43526e+02	9.19000e+02	2.01505e+00	1.43167e+02
938	1.46735e+02	9.38000e+02	2.01428e+00	1.46333e+02
957	1.49950e+02	9.57000e+02	2.01287e+00	1.49500e+02
976	1.53156e+02	9.76000e+02	2.01150e+00	1.52667e+02
995	1.56379e+02	9.95000e+02	2.01015e+00	1.55833e+02
1014	1.59588e+02	1.01400e+03	2.00848e+00	1.59000e+02
1033	1.62812e+02	1.03300e+03	2.00663e+00	1.62167e+02
1052	1.66019e+02	1.05200e+03	2.00431e+00	1.65333e+02
1071	1.69236e+02	1.07100e+03	2.00134e+00	1.68500e+02
1090	1.72466e+02	1.09000e+03	1.99716e+00	1.71667e+02
1109	1.75677e+02	1.10900e+03	1.99177e+00	1.74833e+02
1128	1.78894e+02	1.12800e+03	1.98502e+00	1.78000e+02
1147	1.82114e+02	1.14700e+03	1.97769e+00	1.81167e+02
1166	1.85333e+02	1.16600e+03	1.96987e+00	1.84333e+02
1185	1.88540e+02	1.18500e+03	1.96278e+00	1.87500e+02
1204	1.91768e+02	1.20400e+03	1.95696e+00	1.90667e+02
1223	1.95000e+02	1.22300e+03	1.95225e+00	1.93833e+02
1242	1.98214e+02	1.24200e+03	1.94913e+00	1.97000e+02
1261	2.01414e+02	1.26100e+03	1.94663e+00	2.00167e+02
1280	2.04636e+02	1.28000e+03	1.94509e+00	2.03333e+02
1299	2.07826e+02	1.29900e+03	1.94351e+00	2.06500e+02
1318	2.11041e+02	1.31800e+03	1.94177e+00	2.09667e+02
1337	2.14244e+02	1.33700e+03	1.94049e+00	2.12833e+02
1356	2.17448e+02	1.35600e+03	1.93888e+00	2.16000e+02
1375	2.20655e+02	1.37500e+03	1.93729e+00	2.19167e+02
1394	2.23843e+02	1.39400e+03	1.93626e+00	2.22333e+02
1413	2.27019e+02	1.41300e+03	1.93487e+00	2.25500e+02
1432	2.30217e+02	1.43200e+03	1.93396e+00	2.28667e+02
1451	2.33398e+02	1.45100e+03	1.93324e+00	2.31833e+02
1470	2.36571e+02	1.47000e+03	1.93250e+00	2.35000e+02
1489	2.39754e+02	1.48900e+03	1.93189e+00	2.38167e+02
1508	2.42917e+02	1.50800e+03	1.93133e+00	2.41333e+02
1527	2.46100e+02	1.52700e+03	1.93082e+00	2.44500e+02
1546	2.49265e+02	1.54600e+03	1.93008e+00	2.47667e+02
1565	2.52446e+02	1.56500e+03	1.92922e+00	2.50833e+02
1584	2.55626e+02	1.58400e+03	1.92830e+00	2.54000e+02
1603	2.58808e+02	1.60300e+03	1.92750e+00	2.57167e+02
1622	2.61989e+02	1.62200e+03	1.92628e+00	2.60333e+02
1641	2.65135e+02	1.64100e+03	1.92492e+00	2.63500e+02
1660	2.68319e+02	1.66000e+03	1.92321e+00	2.66667e+02
1679	2.71491e+02	1.67900e+03	1.92105e+00	2.69833e+02
1698	2.74658e+02	1.69800e+03	1.91885e+00	2.73000e+02
1717	2.77838e+02	1.71700e+03	1.91524e+00	2.76167e+02
1736	2.81001e+02	1.73600e+03	1.91150e+00	2.79333e+02
1755	2.84176e+02	1.75500e+03	1.90678e+00	2.82500e+02
1774	2.87368e+02	1.77400e+03	1.90102e+00	2.85667e+02
1793	2.90525e+02	1.79300e+03	1.89416e+00	2.88833e+02
1812	2.93659e+02	1.81200e+03	1.88602e+00	2.92000e+02
1831	2.96800e+02	1.83100e+03	1.87734e+00	2.95167e+02
1850	2.99935e+02	1.85000e+03	1.86784e+00	2.98333e+02
1869	3.03067e+02	1.86900e+03	1.85750e+00	3.01500e+02
1888	3.06184e+02	1.88800e+03	1.84723e+00	3.04667e+02
1907	3.09311e+02	1.90700e+03	1.83692e+00	3.07833e+02
1926	3.12438e+02	1.92600e+03	1.82594e+00	3.11000e+02
1945	3.15578e+02	1.94500e+03	1.81442e+00	3.14167e+02
1964	3.18730e+02	1.96400e+03	1.80106e+00	3.17333e+02
1983	3.21899e+02	1.98300e+03	1.78552e+00	3.20500e+02
2002	3.25039e+02	2.00200e+03	1.76668e+00	3.23667e+02
2021	3.28198e+02	2.02100e+03	1.74381e+00	3.26833e+02
2040	3.31341e+02	2.04000e+03	1.71550e+00	3.30000e+02
2059	3.34510e+02	2.05900e+03	1.68031e+00	3.33167e+02
2078	3.37653e+02	2.07800e+03	1.63844e+00	3.36333e+02
2097	3.40791e+02	2.09700e+03	1.58734e+00	3.39500e+02
2116	3.43932e+02	2.11600e+03	1.52683e+00	3.42667e+02
2135	3.47080e+02	2.13500e+03	1.45697e+00	3.45833e+02
2154	3.50220e+02	2.15400e+03	1.37817e+00	3.49000e+02
2173	3.53355e+02	2.17300e+03	1.29066e+00	3.52167e+02
2192	3.56492e+02	2.19200e+03	1.19594e+00	3.55333e+02
2211	3.59655e+02	2.21100e+03	1.09444e+00	3.58500e+02
2230	3.62834e+02	2.23000e+03	9.89949e-01	3.61667e+02
2249	3.66005e+02	2.24900e+03	8.82451e-01	3.64833e+02
2268	3.69199e+02	2.26800e+03	7.73029e-01	3.68000e+02
2287	3.72438e+02	2.28700e+03	6.64469e-01	3.71167e+02
2306	3.75722e+02	2.30600e+03	5.61698e-01	3.74333e+02
2325	3.78964e+02	2.32500e+03	4.67368e-01	3.77500e+02
2344	3.82177e+02	2.34400e+03	3.82868e-01	3.80667e+02
2363	3.85347e+02	2.36300e+03	3.09900e-01	3.83833e+02
2382	3.88512e+02	2.38200e+03	2.48382e-01	3.87000e+02
2401	3.91691e+02	2.40100e+03	1.97758e-01	3.90167e+02
2420	3.94859e+02	2.42000e+03	1.56875e-01	3.93333e+02
2439	3.98035e+02	2.43900e+03	1.24838e-01	3.96500e+02
2458	4.01187e+02	2.45800e+03	1.00466e-01	3.99667e+02
2477	4.04366e+02	2.47700e+03	8.19424e-02	4.02833e+02
2496	4.07511e+02	2.49600e+03	6.89423e-02	4.06000e+02
2515	4.10663e+02	2.51500e+03	5.93175e-02	4.09167e+02
2534	4.13819e+02	2.53400e+03	5.28925e-02	4.12333e+02
2553	4.16977e+02	2.55300e+03	4.86739e-02	4.15500e+02
2572	4.20138e+02	2.57200e+03	4.55684e-02	4.18667e+02
2591	4.23298e+02	2.59100e+03	4.36538e-02	4.21833e+02
2610	4.26464e+02	2.61000e+03	4.19730e-02	4.25000e+02
2629	4.29570e+02	2.62900e+03	4.14620e-02	4.28167e+02
2648	4.32502e+02	2.64800e+03	4.07668e-02	4.31333e+02
2667	4.35589e+02	2.66700e+03	4.04313e-02	4.34500e+02
2686	4.38707e+02	2.68600e+03	4.02754e-02	4.37667e+02
2705	4.41828e+02	2.70500e+03	4.00341e-02	4.40833e+02
2724	4.44960e+02	2.72400e+03	3.98913e-02	4.44000e+02
2743	4.48100e+02	2.74300e+03	3.98989e-02	4.47167e+02
2762	4.51228e+02	2.76200e+03	3.98951e-02	4.50333e+02
2781	4.54366e+02	2.78100e+03	3.94774e-02	4.53500e+02
2800	4.57493e+02	2.80000e+03	3.96383e-02	4.56667e+02
2819	4.60620e+02	2.81900e+03	3.95358e-02	4.59833e+02
2838	4.63736e+02	2.83800e+03	3.92727e-02	4.63000e+02
2857	4.66868e+02	2.85700e+03	3.95155e-02	4.66167e+02
2876	4.70010e+02	2.87600e+03	3.94324e-02	4.69333e+02
2895	4.73147e+02	2.89500e+03	3.92277e-02	4.72500e+02
2914	4.76279e+02	2.91400e+03	3.94445e-02	4.75667e+02
2933	4.79412e+02	2.93300e+03	3.94646e-02	4.78833e+02
2952	4.82540e+02	2.95200e+03	3.94563e-02	4.82000e+02
2971	4.85658e+02	2.97100e+03	3.92623e-02	4.85167e+02
2990	4.88803e+02	2.99000e+03	3.91341e-02	4.88333e+02
3009	4.91941e+02	3.00900e+03	3.93982e-02	4.91500e+02
3028	4.95080e+02	3.02800e+03	3.95879e-02	4.94667e+02
3047	4.98212e+02	3.04700e+03	3.93063e-02	4.97833e+02
3066	5.01350e+02	3.06600e+03	3.93803e-02	5.01000e+02
3085	5.04467e+02	3.08500e+03	3.92378e-02	5.04167e+02
3104	5.07609e+02	3.10400e+03	3.92628e-02	5.07333e+02
3123	5.10755e+02	3.12300e+03	3.92266e-02	5.10500e+02
3142	5.13879e+02	3.14200e+03	3.92163e-02	5.13667e+02
3161	5.17018e+02	3.16100e+03	3.95108e-02	5.16833e+02
3180	5.20149e+02	3.18000e+03	3.93582e-02	5.20000e+02
3199	5.23292e+02	3.19900e+03	3.93770e-02	5.23167e+02
3218	5.26409e+02	3.21800e+03	3.94511e-02	5.26333e+02
3237	5.29544e+02	3.23700e+03	3.93162e-02	5.29500e+02
3256	5.32678e+02	3.25600e+03	3.93675e-02	5.32667e+02
3275	5.35847e+02	3.27500e+03	3.91206e-02	5.35833e+02
3294	5.38990e+02	3.29400e+03	3.92884e-02	5.39000e+02
3313	5.42145e+02	3.31300e+03	3.92898e-02	5.42167e+02
3332	5.45289e+02	3.33200e+03	3.93934e-02	5.45333e+02
3351	5.48430e+02	3.35100e+03	3.94226e-02	5.48500e+02
3370	5.51584e+02	3.37000e+03	3.92645e-02	5.51667e+02
3389	5.54763e+02	3.38900e+03	3.91354e-02	5.54833e+02
3408	5.57924e+02	3.40800e+03	3.90688e-02	5.58000e+02
3427	5.61084e+02	3.42700e+03	3.91483e-02	5.61167e+02
3446	5.64240e+02	3.44600e+03	3.90214e-02	5.64333e+02
3465	5.67379e+02	3.46500e+03	3.91320e-02	5.67500e+02
3484	5.70503e+02	3.48400e+03	3.89744e-02	5.70667e+02
3503	5.73614e+02	3.50300e+03	3.89816e-02	5.73833e+02
3522	5.76726e+02	3.52200e+03	3.88401e-02	5.77000e+02
3541	5.79870e+02	3.54100e+03	3.88856e-02	5.80167e+02
3560	5.83008e+02	3.56000e+03	3.89008e-02	5.83333e+02
3579	5.86136e+02	3.57900e+03	3.89382e-02	5.86500e+02
3598	5.89274e+02	3.59800e+03	3.87612e-02	5.89667e+02
3617	5.92389e+02	3.61700e+03	3.91130e-02	5.92833e+02
3636	5.95497e+02	3.63600e+03	3.90284e-02	5.96000e+02
3655	5.98625e+02	3.65500e+03	3.89284e-02	5.99167e+02
3674	6.01761e+02	3.67400e+03	3.89136e-02	6.02333e+02
3693	6.04919e+02	3.69300e+03	3.88810e-02	6.05500e+02
3712	6.08099e+02	3.71200e+03	3.89075e-02	6.08667e+02
3731	6.11255e+02	3.73100e+03	3.91110e-02	6.11833e+02
3750	6.14380e+02	3.75000e+03	3.88738e-02	6.15000e+02
3769	6.17542e+02	3.76900e+03	3.87446e-02	6.18167e+02
3788	6.20698e+02	3.78800e+03	3.89878e-02	6.21333e+02
3807	6.23869e+02	3.80700e+03	3.88456e-02	6.24500e+02
3826	6.27034e+02	3.82600e+03	3.90400e-02	6.27667e+02
3845	6.30197e+02	3.84500e+03	3.88518e-02	6.30833e+02
3864	6.33377e+02	3.86400e+03	3.88715e-02	6.34000e+02
3883	6.36549e+02	3.88300e+03	3.86821e-02	6.37167e+02
3902	6.39720e+02	3.90200e+03	3.86258e-02	6.40333e+02
3921	6.42868e+02	3.92100e+03	3.86399e-02	6.43500e+02
3940	6.46020e+02	3.94000e+03	3.85237e-02	6.46667e+02
3959	6.49185e+02	3.95900e+03	3.88405e-02	6.49833e+02
3978	6.52342e+02	3.97800e+03	3.87645e-02	6.53000e+02
3997	6.55477e+02	3.99700e+03	3.88507e-02	6.56167e+02
4016	6.58621e+02	4.01600e+03	3.86267e-02	6.59333e+02
4035	6.61758e+02	4.03500e+03	3.86642e-02	6.62500e+02
4054	6.64909e+02	4.05400e+03	3.86232e-02	6.65667e+02
4073	6.68065e+02	4.07300e+03	3.85466e-02	6.68833e+02
4092	6.71215e+02	4.09200e+03	3.85678e-02	6.72000e+02
4111	6.74352e+02	4.11100e+03	3.85736e-02	6.75167e+02
4130	6.77514e+02	4.13000e+03	3.85025e-02	6.78333e+02
4149	6.80667e+02	4.14900e+03	3.81490e-02	6.81500e+02
4168	6.83795e+02	4.16800e+03	3.83255e-02	6.84667e+02
4187	6.86935e+02	4.18700e+03	3.81421e-02	6.87833e+02
4206	6.90093e+02	4.20600e+03	3.83022e-02	6.91000e+02
4225	6.93240e+02	4.22500e+03	3.82862e-02	6.94167e+02
4244	6.95843e+02	4.24400e+03	3.82706e-02	6.97333e+02
4260	6.97194e+02	4.26000e+03	3.82583e-02	7.00000e+02