File: Experiments/TUBS/tga_nonisotherm/tga_dynamic_n2high60_dyn30_powder_3mg_r2.txt
Index	Ts	t	Weight	Tr
[#]	[°C]	[s]	[mg]	[°C]
682	1.30187e+02	6.82000e+02	2.98964	131.0
692	1.35184e+02	6.92000e+02	2.98935	136.0
702	1.40199e+02	7.02000e+02	2.98886	141.0
712	1.45217e+02	7.12000e+02	2.98765	146.0
722	1.50222e+02	7.22000e+02	2.98622	151.0
732	1.55253e+02	7.32000e+02	2.98431	156.0
742	1.60275e+02	7.42000e+02	2.98184	161.0
752	1.65319e+02	7.52000e+02	2.97886	166.0
762	1.70364e+02	7.62000e+02	2.97466	171.0
772	1.75397e+02	7.72000e+02	2.96898	176.0
782	1.80446e+02	7.82000e+02	2.96013	181.0
792	1.85506e+02	7.92000e+02	2.94743	186.0
802	1.90573e+02	8.02000e+02	2.93179	191.0
812	1.95636e+02	8.12000e+02	2.91442	196.0
822	2.00702e+02	8.22000e+02	2.89769	201.0
832	2.05807e+02	8.32000e+02	2.8839	206.0
842	2.10915e+02	8.42000e+02	2.87438	211.0
852	2.16004e+02	8.52000e+02	2.8685	216.0
862	2.21082e+02	8.62000e+02	2.86444	221.0
872	2.26078e+02	8.72000e+02	2.86075	226.0
882	2.31115e+02	8.82000e+02	2.85729	231.0
892	2.36189e+02	8.92000e+02	2.85379	236.0
902	2.41240e+02	9.02000e+02	2.85042	241.0
912	2.46276e+02	9.12000e+02	2.84756	246.0
922	2.51308e+02	9.22000e+02	2.84503	251.0
932	2.56339e+02	9.32000e+02	2.84287	256.0
942	2.61405e+02	9.42000e+02	2.8405	261.0
952	2.66489e+02	9.52000e+02	2.83777	266.0
962	2.71611e+02	9.62000e+02	2.83532	271.0
972	2.76655e+02	9.72000e+02	2.83224	276.0
982	2.81694e+02	9.82000e+02	2.82824	281.0
992	2.86850e+02	9.92000e+02	2.82239	286.0
1002	2.92006e+02	1.00200e+03	2.81447	291.0
1012	2.97061e+02	1.01200e+03	2.8037	296.0
1022	3.02096e+02	1.02200e+03	2.78972	301.0
1032	3.07106e+02	1.03200e+03	2.77215	306.0
1042	3.12176e+02	1.04200e+03	2.75226	311.0
1052	3.17241e+02	1.05200e+03	2.73065	316.0
1062	3.22271e+02	1.06200e+03	2.70866	321.0
1072	3.27448e+02	1.07200e+03	2.68521	326.0
1082	3.32542e+02	1.08200e+03	2.65691	331.0
1092	3.37651e+02	1.09200e+03	2.61939	336.0
1102	3.42666e+02	1.10200e+03	2.56829	341.0
1112	3.47717e+02	1.11200e+03	2.49911	346.0
1122	3.52747e+02	1.12200e+03	2.40759	351.0
1132	3.57639e+02	1.13200e+03	2.28988	356.0
1142	3.62634e+02	1.14200e+03	2.14569	361.0
1152	3.67577e+02	1.15200e+03	1.97723	366.0
1162	3.72410e+02	1.16200e+03	1.78686	371.0
1172	3.77275e+02	1.17200e+03	1.57678	376.0
1182	3.82196e+02	1.18200e+03	1.35417	381.0
1192	3.87052e+02	1.19200e+03	1.12755	386.0
1202	3.91935e+02	1.20200e+03	0.905438	391.0
1212	3.96860e+02	1.21200e+03	0.691572	396.0
1222	4.01908e+02	1.22200e+03	0.500954	401.0
1232	4.06971e+02	1.23200e+03	0.347089	406.0
1242	4.12100e+02	1.24200e+03	0.231971	411.0
1252	4.17232e+02	1.25200e+03	0.15085	416.0
1262	4.22193e+02	1.26200e+03	0.0965158	421.0
1272	4.27246e+02	1.27200e+03	0.0636036	426.0
1282	4.32227e+02	1.28200e+03	0.045123	431.0
1292	4.37169e+02	1.29200e+03	0.0350289	436.0
1302	4.42083e+02	1.30200e+03	0.0298773	441.0
1312	4.47036e+02	1.31200e+03	0.0273398	446.0
1322	4.51979e+02	1.32200e+03	0.0257959	451.0
1332	4.56838e+02	1.33200e+03	0.0251979	456.0
1342	4.61576e+02	1.34200e+03	0.0248742	461.0
1352	4.66457e+02	1.35200e+03	0.0246501	466.0
1362	4.71341e+02	1.36200e+03	0.0248296	471.0
1372	4.76221e+02	1.37200e+03	0.0246602	476.0
1382	4.81145e+02	1.38200e+03	0.0245139	481.0
1392	4.86059e+02	1.39200e+03	0.0244871	486.0
1402	4.90975e+02	1.40200e+03	0.0243049	491.0
1412	4.95890e+02	1.41200e+03	0.0242833	496.0
1422	5.00786e+02	1.42200e+03	0.0243086	501.0
1432	5.05655e+02	1.43200e+03	0.0241885	506.0
1442	5.10555e+02	1.44200e+03	0.0241588	511.0
1452	5.15479e+02	1.45200e+03	0.0243108	516.0
1462	5.20453e+02	1.46200e+03	0.0241804	521.0
1472	5.25414e+02	1.47200e+03	0.0242569	526.0
1482	5.30353e+02	1.48200e+03	0.0242422	531.0
1492	5.35323e+02	1.49200e+03	0.0241408	536.0
1502	5.40331e+02	1.50200e+03	0.0240716	541.0
1512	5.45315e+02	1.51200e+03	0.0239227	546.0
1522	5.50364e+02	1.52200e+03	0.0239052	551.0
1532	5.55623e+02	1.53200e+03	0.0239721	556.0
1542	5.60411e+02	1.54200e+03	0.024047	561.0
1552	5.65304e+02	1.55200e+03	0.0238476	566.0
1562	5.70215e+02	1.56200e+03	0.0239221	571.0
1572	5.75169e+02	1.57200e+03	0.0239638	576.0
1582	5.80133e+02	1.58200e+03	0.023928	581.0
1592	5.85121e+02	1.59200e+03	0.0239818	586.0
1602	5.90148e+02	1.60200e+03	0.0240102	591.0
1612	5.95183e+02	1.61200e+03	0.0239474	596.0
1622	6.02311e+02	1.62200e+03	0.0240002	601.0
1632	6.06783e+02	1.63200e+03	0.0238652	606.0
1642	6.11585e+02	1.64200e+03	0.0237349	611.0
1652	6.16428e+02	1.65200e+03	0.0238898	616.0
1662	6.21212e+02	1.66200e+03	0.0239818	621.0
1672	6.26064e+02	1.67200e+03	0.0238715	626.0
1682	6.30898e+02	1.68200e+03	0.0237793	631.0
1692	6.35652e+02	1.69200e+03	0.023939	636.0
1702	6.40504e+02	1.70200e+03	0.0239663	641.0
1712	6.45370e+02	1.71200e+03	0.0238861	646.0
1722	6.50202e+02	1.72200e+03	0.0239824	651.0
1732	6.55074e+02	1.73200e+03	0.0237268	656.0
1742	6.59937e+02	1.74200e+03	0.0236416	661.0
1752	6.64824e+02	1.75200e+03	0.0236675	666.0
1762	6.69719e+02	1.76200e+03	0.023831	671.0
1772	6.74605e+02	1.77200e+03	0.0238285	676.0
1782	6.79487e+02	1.78200e+03	0.0236106	681.0
1792	6.84374e+02	1.79200e+03	0.0235634	686.0
1802	6.87763e+02	1.80200e+03	0.0236891	691.0
1812	6.90521e+02	1.81200e+03	0.0236293	696.0
1822	6.92498e+02	1.82200e+03	0.0233594	700.0
1832	6.94006e+02	1.83200e+03	0.0233297	700.0
1842	6.95132e+02	1.84200e+03	0.0232184	700.0
1852	6.96003e+02	1.85200e+03	0.0235851	700.0
1862	6.96647e+02	1.86200e+03	0.0234643	700.0
1872	6.97157e+02	1.87200e+03	0.0232402	700.0
1882	6.97550e+02	1.88200e+03	0.0232018	700.0
1892	6.97885e+02	1.89200e+03	0.0234891	700.0
1902	6.98112e+02	1.90200e+03	0.0232617	700.0
1912	6.98322e+02	1.91200e+03	0.023249	700.0
1922	6.98474e+02	1.92200e+03	0.0234094	700.0
1932	6.98593e+02	1.93200e+03	0.0235189	700.0
1942	6.98698e+02	1.94200e+03	0.0234829	700.0
1952	6.98773e+02	1.95200e+03	0.0234444	700.0
1962	6.98828e+02	1.96200e+03	0.0234184	700.0
1972	6.98879e+02	1.97200e+03	0.0236333	700.0
1982	6.98923e+02	1.98200e+03	0.0234853	700.0
1992	6.98953e+02	1.99200e+03	0.0234098	700.0
2002	6.98983e+02	2.00200e+03	0.023407	700.0
2012	6.99004e+02	2.01200e+03	0.0233087	700.0
2022	6.99011e+02	2.02200e+03	0.0235242	700.0
2032	6.99027e+02	2.03200e+03	0.0235929	700.0
2042	6.99036e+02	2.04200e+03	0.0234548	700.0
2052	6.99045e+02	2.05200e+03	0.0233962	700.0
2062	6.99054e+02	2.06200e+03	0.0234682	700.0
2072	6.99042e+02	2.07200e+03	0.0234914	700.0
2082	6.99056e+02	2.08200e+03	0.0235461	700.0
2092	6.99047e+02	2.09200e+03	0.0233513	700.0
2102	6.99054e+02	2.10200e+03	0.0232767	700.0
2112	6.99038e+02	2.11200e+03	0.0232629	700.0
2122	6.99034e+02	2.12200e+03	0.0232272	700.0
2132	6.99038e+02	2.13200e+03	0.0232127	700.0
2142	6.99030e+02	2.14200e+03	0.0231392	700.0
2152	6.99016e+02	2.15200e+03	0.023082	700.0
2162	6.99017e+02	2.16200e+03	0.0231896	700.0
2172	6.99009e+02	2.17200e+03	0.0232795	700.0
2182	6.99004e+02	2.18200e+03	0.0231447	700.0
2192	6.99000e+02	2.19200e+03	0.0231102	700.0
2202	6.99007e+02	2.20200e+03	0.0231722	700.0
2212	6.98997e+02	2.21200e+03	0.0232463	700.0
2222	6.98983e+02	2.22200e+03	0.0231773	700.0
2232	6.98979e+02	2.23200e+03	0.0231107	700.0
2242	6.98970e+02	2.24200e+03	0.0229292	700.0
2252	6.98973e+02	2.25200e+03	0.0228182	700.0
2262	6.98957e+02	2.26200e+03	0.0227642	700.0
2272	6.98952e+02	2.27200e+03	0.0229252	700.0
2282	6.98949e+02	2.28200e+03	0.0229948	700.0
2292	6.98931e+02	2.29200e+03	0.0230482	700.0
2302	6.98935e+02	2.30200e+03	0.0230353	700.0
2312	6.98923e+02	2.31200e+03	0.0230708	700.0
2322	6.98919e+02	2.32200e+03	0.0230178	700.0
2332	6.98928e+02	2.33200e+03	0.0229403	700.0
2342	6.98905e+02	2.34200e+03	0.0228797	700.0
2352	6.98911e+02	2.35200e+03	0.0229445	700.0
2362	6.98900e+02	2.36200e+03	0.0229986	700.0
2372	6.98903e+02	2.37200e+03	0.0229028	700.0
2382	6.98887e+02	2.38200e+03	0.0229274	700.0
2392	6.98889e+02	2.39200e+03	0.0228504	700.0
2402	6.98890e+02	2.40200e+03	0.0228023	700.0
2412	6.98874e+02	2.41200e+03	0.0227227	700.0
2422	6.98872e+02	2.42200e+03	0.0229915	700.0
2432	6.98877e+02	2.43200e+03	0.0229097	700.0
2442	6.98863e+02	2.44200e+03	0.0228855	700.0
2452	6.98869e+02	2.45200e+03	0.0229793	700.0
2462	6.98872e+02	2.46200e+03	0.0230683	700.0
2472	6.98868e+02	2.47200e+03	0.0229091	700.0
2482	6.98862e+02	2.48200e+03	0.0229277	700.0
2492	6.98876e+02	2.49200e+03	0.0229858	700.0
2502	6.98858e+02	2.50200e+03	0.0230105	700.0
2512	6.98854e+02	2.51200e+03	0.0227564	700.0
2522	6.98856e+02	2.52200e+03	0.0229687	700.0
2532	6.98854e+02	2.53200e+03	0.0230434	700.0
2542	6.98846e+02	2.54200e+03	0.0227086	700.0
2552	6.98844e+02	2.55200e+03	0.0228209	700.0
2562	6.98840e+02	2.56200e+03	0.0228572	700.0
2572	6.98823e+02	2.57200e+03	0.0227898	700.0
2582	6.98837e+02	2.58200e+03	0.0228993	700.0
2592	6.98831e+02	2.59200e+03	0.0227938	700.0
2602	6.98827e+02	2.60200e+03	0.0228111	700.0
2612	6.98829e+02	2.61200e+03	0.0228168	700.0
2622	6.98823e+02	2.62200e+03	0.0228998	700.0
2632	6.98828e+02	2.63200e+03	0.0229026	700.0
2642	6.98826e+02	2.64200e+03	0.0229007	700.0
2652	6.98822e+02	2.65200e+03	0.0227301	700.0
2662	6.98818e+02	2.66200e+03	0.0227871	700.0
2672	6.98810e+02	2.67200e+03	0.0227529	700.0
2682	6.98813e+02	2.68200e+03	0.0229715	700.0
2692	6.98802e+02	2.69200e+03	0.022957	700.0
2702	6.98806e+02	2.70200e+03	0.0229923	700.0
2712	6.98800e+02	2.71200e+03	0.0229669	700.0
2720	6.98802e+02	2.72000e+03	0.0229078	700.0