File: Experiments/TUBS/tga_nonisotherm/tga_dynamic_n2high50_dyn30_piece_3mg_r2.txt
Index	Ts	t	Weight	Tr
[#]	[°C]	[s]	[mg]	[°C]
682	1.30382e+02	6.82000e+02	3.00265	131.0
692	1.35407e+02	6.92000e+02	3.00249	136.0
702	1.40429e+02	7.02000e+02	3.00226	141.0
712	1.45458e+02	7.12000e+02	3.00203	146.0
722	1.50496e+02	7.22000e+02	3.00166	151.0
732	1.55555e+02	7.32000e+02	3.00148	156.0
742	1.60592e+02	7.42000e+02	3.00097	161.0
752	1.65635e+02	7.52000e+02	3.00042	166.0
762	1.70695e+02	7.62000e+02	2.99976	171.0
772	1.75752e+02	7.72000e+02	2.99941	176.0
782	1.80810e+02	7.82000e+02	2.99872	181.0
792	1.85879e+02	7.92000e+02	2.99749	186.0
802	1.90967e+02	8.02000e+02	2.99574	191.0
812	1.96039e+02	8.12000e+02	2.99319	196.0
822	2.01121e+02	8.22000e+02	2.98987	201.0
832	2.06167e+02	8.32000e+02	2.9861	206.0
842	2.11251e+02	8.42000e+02	2.98169	211.0
852	2.16305e+02	8.52000e+02	2.97692	216.0
862	2.21372e+02	8.62000e+02	2.97216	221.0
872	2.26524e+02	8.72000e+02	2.96734	226.0
882	2.31589e+02	8.82000e+02	2.96256	231.0
892	2.36638e+02	8.92000e+02	2.95753	236.0
902	2.41722e+02	9.02000e+02	2.95206	241.0
912	2.46791e+02	9.12000e+02	2.94647	246.0
922	2.51859e+02	9.22000e+02	2.94099	251.0
932	2.56950e+02	9.32000e+02	2.93512	256.0
942	2.62003e+02	9.42000e+02	2.92934	261.0
952	2.67042e+02	9.52000e+02	2.92355	266.0
962	2.71973e+02	9.62000e+02	2.91731	271.0
972	2.77165e+02	9.72000e+02	2.91111	276.0
982	2.82106e+02	9.82000e+02	2.90495	281.0
992	2.87174e+02	9.92000e+02	2.89788	286.0
1002	2.92343e+02	1.00200e+03	2.89044	291.0
1012	2.97551e+02	1.01200e+03	2.88123	296.0
1022	3.02550e+02	1.02200e+03	2.87007	301.0
1032	3.07600e+02	1.03200e+03	2.85777	306.0
1042	3.12584e+02	1.04200e+03	2.8438	311.0
1052	3.17560e+02	1.05200e+03	2.82807	316.0
1062	3.22513e+02	1.06200e+03	2.81126	321.0
1072	3.27542e+02	1.07200e+03	2.79372	326.0
1082	3.32516e+02	1.08200e+03	2.77494	331.0
1092	3.37556e+02	1.09200e+03	2.75135	336.0
1102	3.42559e+02	1.10200e+03	2.72143	341.0
1112	3.47559e+02	1.11200e+03	2.68121	346.0
1122	3.52562e+02	1.12200e+03	2.6259	351.0
1132	3.57560e+02	1.13200e+03	2.54801	356.0
1142	3.62511e+02	1.14200e+03	2.4409	361.0
1152	3.67459e+02	1.15200e+03	2.29537	366.0
1162	3.72433e+02	1.16200e+03	2.1092	371.0
1172	3.77358e+02	1.17200e+03	1.88236	376.0
1182	3.82379e+02	1.18200e+03	1.62399	381.0
1192	3.87436e+02	1.19200e+03	1.34978	386.0
1202	3.92481e+02	1.20200e+03	1.07309	391.0
1212	3.97637e+02	1.21200e+03	0.806713	396.0
1222	4.02831e+02	1.22200e+03	0.553115	401.0
1232	4.07992e+02	1.23200e+03	0.331628	406.0
1242	4.13026e+02	1.24200e+03	0.162184	411.0
1252	4.18318e+02	1.25200e+03	0.0482562	416.0
1262	4.23325e+02	1.26200e+03	-0.0221664	421.0
1272	4.28274e+02	1.27200e+03	-0.0618622	426.0
1282	4.33288e+02	1.28200e+03	-0.0835688	431.0
1292	4.38404e+02	1.29200e+03	-0.0951734	436.0
1302	4.43754e+02	1.30200e+03	-0.101571	441.0
1312	4.48795e+02	1.31200e+03	-0.105203	446.0
1322	4.53713e+02	1.32200e+03	-0.107427	451.0
1332	4.58671e+02	1.33200e+03	-0.108606	456.0
1342	4.63509e+02	1.34200e+03	-0.109061	461.0
1352	4.68421e+02	1.35200e+03	-0.109426	466.0
1362	4.73154e+02	1.36200e+03	-0.109837	471.0
1372	4.77884e+02	1.37200e+03	-0.109781	476.0
1382	4.82653e+02	1.38200e+03	-0.109865	481.0
1392	4.87568e+02	1.39200e+03	-0.110102	486.0
1402	4.92504e+02	1.40200e+03	-0.110381	491.0
1412	4.97516e+02	1.41200e+03	-0.110474	496.0
1422	5.02482e+02	1.42200e+03	-0.110416	501.0
1432	5.07325e+02	1.43200e+03	-0.110546	506.0
1442	5.12207e+02	1.44200e+03	-0.11064	511.0
1452	5.17289e+02	1.45200e+03	-0.110614	516.0
1462	5.22252e+02	1.46200e+03	-0.110541	521.0
1472	5.27350e+02	1.47200e+03	-0.11071	526.0
1482	5.32130e+02	1.48200e+03	-0.110836	531.0
1492	5.36855e+02	1.49200e+03	-0.110938	536.0
1502	5.41797e+02	1.50200e+03	-0.110904	541.0
1512	5.46682e+02	1.51200e+03	-0.110914	546.0
1522	5.51561e+02	1.52200e+03	-0.110977	551.0
1532	5.56477e+02	1.53200e+03	-0.111036	556.0
1542	5.61812e+02	1.54200e+03	-0.111187	561.0
1552	5.67185e+02	1.55200e+03	-0.111337	566.0
1562	5.71822e+02	1.56200e+03	-0.111169	571.0
1572	5.76750e+02	1.57200e+03	-0.111148	576.0
1582	5.81687e+02	1.58200e+03	-0.111284	581.0
1592	5.86583e+02	1.59200e+03	-0.111121	586.0
1602	5.91653e+02	1.60200e+03	-0.111145	591.0
1612	5.96713e+02	1.61200e+03	-0.111301	596.0
1622	6.01933e+02	1.62200e+03	-0.111346	601.0
1632	6.07141e+02	1.63200e+03	-0.111291	606.0
1642	6.11875e+02	1.64200e+03	-0.111287	611.0
1652	6.16815e+02	1.65200e+03	-0.111365	616.0
1662	6.21583e+02	1.66200e+03	-0.111476	621.0
1672	6.26406e+02	1.67200e+03	-0.111464	626.0
1682	6.31198e+02	1.68200e+03	-0.111551	631.0
1692	6.36163e+02	1.69200e+03	-0.111457	636.0
1702	6.41169e+02	1.70200e+03	-0.111533	641.0
1712	6.46246e+02	1.71200e+03	-0.111627	646.0
1722	6.51141e+02	1.72200e+03	-0.111631	651.0
1732	6.56077e+02	1.73200e+03	-0.111687	656.0
1742	6.60798e+02	1.74200e+03	-0.111741	661.0
1752	6.65656e+02	1.75200e+03	-0.111772	666.0
1762	6.70514e+02	1.76200e+03	-0.111649	671.0
1772	6.75345e+02	1.77200e+03	-0.111569	676.0
1782	6.80213e+02	1.78200e+03	-0.111312	681.0
1792	6.85086e+02	1.79200e+03	-0.111594	686.0
1802	6.88379e+02	1.80200e+03	-0.111602	691.0
1812	6.91068e+02	1.81200e+03	-0.111798	696.0
1822	6.93064e+02	1.82200e+03	-0.111663	700.0
1832	6.94547e+02	1.83200e+03	-0.111658	700.0
1842	6.95696e+02	1.84200e+03	-0.111623	700.0
1852	6.96550e+02	1.85200e+03	-0.111629	700.0
1862	6.97206e+02	1.86200e+03	-0.111817	700.0
1872	6.97711e+02	1.87200e+03	-0.111766	700.0
1882	6.98121e+02	1.88200e+03	-0.111724	700.0
1892	6.98427e+02	1.89200e+03	-0.111817	700.0
1902	6.98676e+02	1.90200e+03	-0.111723	700.0
1912	6.98868e+02	1.91200e+03	-0.111727	700.0
1922	6.99018e+02	1.92200e+03	-0.11183	700.0
1932	6.99150e+02	1.93200e+03	-0.111776	700.0
1942	6.99245e+02	1.94200e+03	-0.111971	700.0
1952	6.99311e+02	1.95200e+03	-0.111944	700.0
1962	6.99365e+02	1.96200e+03	-0.111731	700.0
1972	6.99428e+02	1.97200e+03	-0.111604	700.0
1982	6.99466e+02	1.98200e+03	-0.111359	700.0
1992	6.99487e+02	1.99200e+03	-0.111643	700.0
2002	6.99516e+02	2.00200e+03	-0.111807	700.0
2012	6.99529e+02	2.01200e+03	-0.11182	700.0
2022	6.99547e+02	2.02200e+03	-0.111849	700.0
2032	6.99567e+02	2.03200e+03	-0.111986	700.0
2042	6.99569e+02	2.04200e+03	-0.112024	700.0
2052	6.99572e+02	2.05200e+03	-0.111906	700.0
2062	6.99573e+02	2.06200e+03	-0.112028	700.0
2072	6.99582e+02	2.07200e+03	-0.11201	700.0
2082	6.99580e+02	2.08200e+03	-0.11209	700.0
2092	6.99576e+02	2.09200e+03	-0.111893	700.0
2102	6.99573e+02	2.10200e+03	-0.111879	700.0
2112	6.99562e+02	2.11200e+03	-0.112023	700.0
2122	6.99566e+02	2.12200e+03	-0.111857	700.0
2132	6.99558e+02	2.13200e+03	-0.111884	700.0
2142	6.99550e+02	2.14200e+03	-0.112045	700.0
2152	6.99555e+02	2.15200e+03	-0.112043	700.0
2162	6.99553e+02	2.16200e+03	-0.112049	700.0
2172	6.99542e+02	2.17200e+03	-0.112097	700.0
2182	6.99539e+02	2.18200e+03	-0.112103	700.0
2192	6.99527e+02	2.19200e+03	-0.112215	700.0
2202	6.99522e+02	2.20200e+03	-0.112162	700.0
2212	6.99508e+02	2.21200e+03	-0.112088	700.0
2222	6.99509e+02	2.22200e+03	-0.111909	700.0
2232	6.99504e+02	2.23200e+03	-0.112253	700.0
2242	6.99489e+02	2.24200e+03	-0.112324	700.0
2252	6.99490e+02	2.25200e+03	-0.1123	700.0
2262	6.99491e+02	2.26200e+03	-0.112311	700.0
2272	6.99485e+02	2.27200e+03	-0.112448	700.0
2282	6.99476e+02	2.28200e+03	-0.112443	700.0
2292	6.99468e+02	2.29200e+03	-0.112413	700.0
2302	6.99465e+02	2.30200e+03	-0.112633	700.0
2312	6.99461e+02	2.31200e+03	-0.112438	700.0
2322	6.99450e+02	2.32200e+03	-0.112489	700.0
2332	6.99441e+02	2.33200e+03	-0.112371	700.0
2342	6.99443e+02	2.34200e+03	-0.112394	700.0
2352	6.99445e+02	2.35200e+03	-0.112451	700.0
2362	6.99433e+02	2.36200e+03	-0.11242	700.0
2372	6.99438e+02	2.37200e+03	-0.112563	700.0
2382	6.99439e+02	2.38200e+03	-0.112478	700.0
2392	6.99422e+02	2.39200e+03	-0.112474	700.0
2402	6.99422e+02	2.40200e+03	-0.112545	700.0
2412	6.99414e+02	2.41200e+03	-0.112609	700.0
2422	6.99413e+02	2.42200e+03	-0.112524	700.0
2432	6.99414e+02	2.43200e+03	-0.112654	700.0
2442	6.99404e+02	2.44200e+03	-0.112686	700.0
2452	6.99399e+02	2.45200e+03	-0.11269	700.0
2462	6.99401e+02	2.46200e+03	-0.11265	700.0
2472	6.99400e+02	2.47200e+03	-0.112659	700.0
2482	6.99397e+02	2.48200e+03	-0.112669	700.0
2492	6.99397e+02	2.49200e+03	-0.112637	700.0
2502	6.99396e+02	2.50200e+03	-0.112612	700.0
2512	6.99388e+02	2.51200e+03	-0.11273	700.0
2522	6.99395e+02	2.52200e+03	-0.112707	700.0
2532	6.99393e+02	2.53200e+03	-0.112712	700.0
2542	6.99385e+02	2.54200e+03	-0.112765	700.0
2552	6.99387e+02	2.55200e+03	-0.112804	700.0
2562	6.99381e+02	2.56200e+03	-0.112613	700.0
2572	6.99393e+02	2.57200e+03	-0.112755	700.0
2582	6.99386e+02	2.58200e+03	-0.112926	700.0
2592	6.99382e+02	2.59200e+03	-0.112824	700.0
2602	6.99373e+02	2.60200e+03	-0.112886	700.0
2612	6.99371e+02	2.61200e+03	-0.112908	700.0
2622	6.99379e+02	2.62200e+03	-0.112883	700.0
2632	6.99381e+02	2.63200e+03	-0.112977	700.0
2642	6.99383e+02	2.64200e+03	-0.11296	700.0
2652	6.99382e+02	2.65200e+03	-0.112953	700.0
2662	6.99376e+02	2.66200e+03	-0.112908	700.0
2672	6.99375e+02	2.67200e+03	-0.112844	700.0
2682	6.99386e+02	2.68200e+03	-0.112844	700.0
2692	6.99376e+02	2.69200e+03	-0.112982	700.0
2702	6.99384e+02	2.70200e+03	-0.112957	700.0
2712	6.99385e+02	2.71200e+03	-0.112925	700.0
2720	6.99385e+02	2.72000e+03	-0.11299	700.0