File: Experiments/TUBS/tga_nonisotherm/tga_dynamic_n2_dyn30_powder_1mg_ega.txt
index	ts	t	weight	tr
[#]	[°C]	[s]	[mg]	[°C]
683	1.29194e+02	6.83000e+02	1.28263e+00	1.31500e+02
689	1.32216e+02	6.89000e+02	1.28249e+00	1.34500e+02
695	1.35182e+02	6.95000e+02	1.28223e+00	1.37500e+02
701	1.38215e+02	7.01000e+02	1.28196e+00	1.40500e+02
707	1.41265e+02	7.07000e+02	1.28175e+00	1.43500e+02
713	1.44258e+02	7.13000e+02	1.28142e+00	1.46500e+02
719	1.47353e+02	7.19000e+02	1.28099e+00	1.49500e+02
725	1.50360e+02	7.25000e+02	1.28040e+00	1.52500e+02
731	1.53375e+02	7.31000e+02	1.27985e+00	1.55500e+02
737	1.56401e+02	7.37000e+02	1.27926e+00	1.58500e+02
743	1.59405e+02	7.43000e+02	1.27861e+00	1.61500e+02
749	1.62428e+02	7.49000e+02	1.27785e+00	1.64500e+02
755	1.65462e+02	7.55000e+02	1.27695e+00	1.67500e+02
761	1.68498e+02	7.61000e+02	1.27600e+00	1.70500e+02
767	1.71544e+02	7.67000e+02	1.27482e+00	1.73500e+02
773	1.74571e+02	7.73000e+02	1.27346e+00	1.76500e+02
779	1.77594e+02	7.79000e+02	1.27182e+00	1.79500e+02
785	1.80644e+02	7.85000e+02	1.26950e+00	1.82500e+02
791	1.83682e+02	7.91000e+02	1.26672e+00	1.85500e+02
797	1.86715e+02	7.97000e+02	1.26346e+00	1.88500e+02
803	1.89764e+02	8.03000e+02	1.25971e+00	1.91500e+02
809	1.92809e+02	8.09000e+02	1.25562e+00	1.94500e+02
815	1.95853e+02	8.15000e+02	1.25138e+00	1.97500e+02
821	1.98897e+02	8.21000e+02	1.24720e+00	2.00500e+02
827	2.01954e+02	8.27000e+02	1.24339e+00	2.03500e+02
833	2.04999e+02	8.33000e+02	1.23998e+00	2.06500e+02
839	2.08055e+02	8.39000e+02	1.23708e+00	2.09500e+02
845	2.11103e+02	8.45000e+02	1.23482e+00	2.12500e+02
851	2.14136e+02	8.51000e+02	1.23306e+00	2.15500e+02
857	2.17177e+02	8.57000e+02	1.23174e+00	2.18500e+02
863	2.20199e+02	8.63000e+02	1.23068e+00	2.21500e+02
869	2.23208e+02	8.69000e+02	1.22975e+00	2.24500e+02
875	2.26254e+02	8.75000e+02	1.22887e+00	2.27500e+02
881	2.29308e+02	8.81000e+02	1.22802e+00	2.30500e+02
887	2.32370e+02	8.87000e+02	1.22711e+00	2.33500e+02
893	2.35440e+02	8.93000e+02	1.22620e+00	2.36500e+02
899	2.38507e+02	8.99000e+02	1.22530e+00	2.39500e+02
905	2.41539e+02	9.05000e+02	1.22435e+00	2.42500e+02
911	2.44538e+02	9.11000e+02	1.22349e+00	2.45500e+02
917	2.47501e+02	9.17000e+02	1.22273e+00	2.48500e+02
923	2.50521e+02	9.23000e+02	1.22204e+00	2.51500e+02
929	2.53608e+02	9.29000e+02	1.22140e+00	2.54500e+02
935	2.56725e+02	9.35000e+02	1.22068e+00	2.57500e+02
941	2.59806e+02	9.41000e+02	1.21995e+00	2.60500e+02
947	2.62995e+02	9.47000e+02	1.21920e+00	2.63500e+02
953	2.66134e+02	9.53000e+02	1.21860e+00	2.66500e+02
959	2.69220e+02	9.59000e+02	1.21796e+00	2.69500e+02
965	2.72311e+02	9.65000e+02	1.21712e+00	2.72500e+02
971	2.75367e+02	9.71000e+02	1.21612e+00	2.75500e+02
977	2.78432e+02	9.77000e+02	1.21506e+00	2.78500e+02
983	2.81603e+02	9.83000e+02	1.21406e+00	2.81500e+02
989	2.84762e+02	9.89000e+02	1.21295e+00	2.84500e+02
995	2.87909e+02	9.95000e+02	1.21155e+00	2.87500e+02
1001	2.90893e+02	1.00100e+03	1.20986e+00	2.90500e+02
1007	2.93979e+02	1.00700e+03	1.20786e+00	2.93500e+02
1013	2.97010e+02	1.01300e+03	1.20528e+00	2.96500e+02
1019	3.00044e+02	1.01900e+03	1.20220e+00	2.99500e+02
1025	3.03220e+02	1.02500e+03	1.19861e+00	3.02500e+02
1031	3.06212e+02	1.03100e+03	1.19453e+00	3.05500e+02
1037	3.09252e+02	1.03700e+03	1.18986e+00	3.08500e+02
1043	3.12448e+02	1.04300e+03	1.18486e+00	3.11500e+02
1049	3.15499e+02	1.04900e+03	1.17950e+00	3.14500e+02
1055	3.18554e+02	1.05500e+03	1.17395e+00	3.17500e+02
1061	3.21592e+02	1.06100e+03	1.16834e+00	3.20500e+02
1067	3.24775e+02	1.06700e+03	1.16257e+00	3.23500e+02
1073	3.27844e+02	1.07300e+03	1.15649e+00	3.26500e+02
1079	3.30891e+02	1.07900e+03	1.15023e+00	3.29500e+02
1085	3.33845e+02	1.08500e+03	1.14319e+00	3.32500e+02
1091	3.36893e+02	1.09100e+03	1.13505e+00	3.35500e+02
1097	3.39909e+02	1.09700e+03	1.12518e+00	3.38500e+02
1103	3.42985e+02	1.10300e+03	1.11332e+00	3.41500e+02
1109	3.45999e+02	1.10900e+03	1.09893e+00	3.44500e+02
1115	3.49028e+02	1.11500e+03	1.08171e+00	3.47500e+02
1121	3.52033e+02	1.12100e+03	1.06099e+00	3.50500e+02
1127	3.55044e+02	1.12700e+03	1.03681e+00	3.53500e+02
1133	3.58010e+02	1.13300e+03	1.00822e+00	3.56500e+02
1139	3.60823e+02	1.13900e+03	9.75673e-01	3.59500e+02
1145	3.63770e+02	1.14500e+03	9.38500e-01	3.62500e+02
1151	3.66729e+02	1.15100e+03	8.97423e-01	3.65500e+02
1157	3.69693e+02	1.15700e+03	8.52306e-01	3.68500e+02
1163	3.72640e+02	1.16300e+03	8.03872e-01	3.71500e+02
1169	3.75585e+02	1.16900e+03	7.51768e-01	3.74500e+02
1175	3.78430e+02	1.17500e+03	6.96691e-01	3.77500e+02
1181	3.81325e+02	1.18100e+03	6.39207e-01	3.80500e+02
1187	3.84013e+02	1.18700e+03	5.79827e-01	3.83500e+02
1193	3.86189e+02	1.19300e+03	5.19317e-01	3.86500e+02
1199	3.88310e+02	1.19900e+03	4.59994e-01	3.89500e+02
1205	3.91003e+02	1.20500e+03	4.02779e-01	3.92500e+02
1211	3.93901e+02	1.21100e+03	3.48399e-01	3.95500e+02
1217	3.96870e+02	1.21700e+03	2.98399e-01	3.98500e+02
1223	3.99821e+02	1.22300e+03	2.53125e-01	4.01500e+02
1229	4.02778e+02	1.22900e+03	2.13429e-01	4.04500e+02
1235	4.05736e+02	1.23500e+03	1.78889e-01	4.07500e+02
1241	4.08719e+02	1.24100e+03	1.50113e-01	4.10500e+02
1247	4.11685e+02	1.24700e+03	1.25979e-01	4.13500e+02
1253	4.14638e+02	1.25300e+03	1.06760e-01	4.16500e+02
1259	4.17610e+02	1.25900e+03	9.14200e-02	4.19500e+02
1265	4.20569e+02	1.26500e+03	8.00050e-02	4.22500e+02
1271	4.23552e+02	1.27100e+03	7.13221e-02	4.25500e+02
1277	4.26562e+02	1.27700e+03	6.50216e-02	4.28500e+02
1283	4.29564e+02	1.28300e+03	6.04331e-02	4.31500e+02
1289	4.32532e+02	1.28900e+03	5.73748e-02	4.34500e+02
1295	4.35527e+02	1.29500e+03	5.50108e-02	4.37500e+02
1301	4.38507e+02	1.30100e+03	5.33068e-02	4.40500e+02
1307	4.41486e+02	1.30700e+03	5.23083e-02	4.43500e+02
1313	4.44456e+02	1.31300e+03	5.16543e-02	4.46500e+02
1319	4.47434e+02	1.31900e+03	5.10394e-02	4.49500e+02
1325	4.50409e+02	1.32500e+03	5.06688e-02	4.52500e+02
1331	4.53393e+02	1.33100e+03	5.06268e-02	4.55500e+02
1337	4.56364e+02	1.33700e+03	5.05494e-02	4.58500e+02
1343	4.59333e+02	1.34300e+03	5.03576e-02	4.61500e+02
1349	4.62302e+02	1.34900e+03	5.01958e-02	4.64500e+02
1355	4.65274e+02	1.35500e+03	5.00474e-02	4.67500e+02
1361	4.68259e+02	1.36100e+03	5.01820e-02	4.70500e+02
1367	4.71251e+02	1.36700e+03	5.00990e-02	4.73500e+02
1373	4.74252e+02	1.37300e+03	5.00884e-02	4.76500e+02
1379	4.77314e+02	1.37900e+03	5.02046e-02	4.79500e+02
1385	4.80552e+02	1.38500e+03	5.00997e-02	4.82500e+02
1391	4.84507e+02	1.39100e+03	5.00094e-02	4.85500e+02
1397	4.87383e+02	1.39700e+03	4.98308e-02	4.88500e+02
1403	4.90316e+02	1.40300e+03	4.97282e-02	4.91500e+02
1409	4.93240e+02	1.40900e+03	4.96683e-02	4.94500e+02
1415	4.96164e+02	1.41500e+03	4.96617e-02	4.97500e+02
1421	4.99133e+02	1.42100e+03	4.97093e-02	5.00500e+02
1427	5.02086e+02	1.42700e+03	4.97598e-02	5.03500e+02
1433	5.05089e+02	1.43300e+03	4.96646e-02	5.06500e+02
1439	5.08074e+02	1.43900e+03	4.94801e-02	5.09500e+02
1445	5.11121e+02	1.44500e+03	4.92782e-02	5.12500e+02
1451	5.14166e+02	1.45100e+03	4.93629e-02	5.15500e+02
1457	5.17146e+02	1.45700e+03	4.94333e-02	5.18500e+02
1463	5.20100e+02	1.46300e+03	4.92320e-02	5.21500e+02
1469	5.23057e+02	1.46900e+03	4.89517e-02	5.24500e+02
1475	5.26016e+02	1.47500e+03	4.91364e-02	5.27500e+02
1481	5.28921e+02	1.48100e+03	4.93021e-02	5.30500e+02
1487	5.31787e+02	1.48700e+03	4.91976e-02	5.33500e+02
1493	5.34677e+02	1.49300e+03	4.88906e-02	5.36500e+02
1499	5.37557e+02	1.49900e+03	4.88603e-02	5.39500e+02
1505	5.40474e+02	1.50500e+03	4.89818e-02	5.42500e+02
1511	5.43478e+02	1.51100e+03	4.91366e-02	5.45500e+02
1517	5.46443e+02	1.51700e+03	4.89209e-02	5.48500e+02
1523	5.49337e+02	1.52300e+03	4.86710e-02	5.51500e+02
1529	5.52214e+02	1.52900e+03	4.88843e-02	5.54500e+02
1535	5.55212e+02	1.53500e+03	4.89301e-02	5.57500e+02
1541	5.58019e+02	1.54100e+03	4.87470e-02	5.60500e+02
1547	5.60977e+02	1.54700e+03	4.87344e-02	5.63500e+02
1553	5.63922e+02	1.55300e+03	4.87968e-02	5.66500e+02
1559	5.66865e+02	1.55900e+03	4.88103e-02	5.69500e+02
1565	5.69903e+02	1.56500e+03	4.85910e-02	5.72500e+02
1571	5.74656e+02	1.57100e+03	4.86384e-02	5.75500e+02
1577	5.77335e+02	1.57700e+03	4.87734e-02	5.78500e+02
1583	5.80138e+02	1.58300e+03	4.83710e-02	5.81500e+02
1589	5.82977e+02	1.58900e+03	4.85064e-02	5.84500e+02
1595	5.85832e+02	1.59500e+03	4.84505e-02	5.87500e+02
1601	5.88765e+02	1.60100e+03	4.84114e-02	5.90500e+02
1607	5.91687e+02	1.60700e+03	4.82154e-02	5.93500e+02
1613	5.94642e+02	1.61300e+03	4.80625e-02	5.96500e+02
1619	5.97609e+02	1.61900e+03	4.83322e-02	5.99500e+02
1625	6.00549e+02	1.62500e+03	4.79490e-02	6.02500e+02
1631	6.03478e+02	1.63100e+03	4.80504e-02	6.05500e+02
1637	6.06484e+02	1.63700e+03	4.80736e-02	6.08500e+02
1643	6.09407e+02	1.64300e+03	4.80839e-02	6.11500e+02
1649	6.12265e+02	1.64900e+03	4.79277e-02	6.14500e+02
1655	6.15158e+02	1.65500e+03	4.80195e-02	6.17500e+02
1661	6.17975e+02	1.66100e+03	4.80050e-02	6.20500e+02
1667	6.20904e+02	1.66700e+03	4.76891e-02	6.23500e+02
1673	6.23871e+02	1.67300e+03	4.76776e-02	6.26500e+02
1679	6.26832e+02	1.67900e+03	4.78939e-02	6.29500e+02
1685	6.29807e+02	1.68500e+03	4.76031e-02	6.32500e+02
1691	6.32648e+02	1.69100e+03	4.75302e-02	6.35500e+02
1697	6.35726e+02	1.69700e+03	4.79263e-02	6.38500e+02
1703	6.38771e+02	1.70300e+03	4.76210e-02	6.41500e+02
1709	6.41825e+02	1.70900e+03	4.77430e-02	6.44500e+02
1715	6.44841e+02	1.71500e+03	4.77241e-02	6.47500e+02
1721	6.47938e+02	1.72100e+03	4.78802e-02	6.50500e+02
1727	6.50847e+02	1.72700e+03	4.75787e-02	6.53500e+02
1733	6.53854e+02	1.73300e+03	4.78087e-02	6.56500e+02
1739	6.56871e+02	1.73900e+03	4.79133e-02	6.59500e+02
1745	6.60412e+02	1.74500e+03	4.74794e-02	6.62500e+02
1751	6.63495e+02	1.75100e+03	4.78226e-02	6.65500e+02
1757	6.66631e+02	1.75700e+03	4.75105e-02	6.68500e+02
1763	6.69731e+02	1.76300e+03	4.75363e-02	6.71500e+02
1769	6.72677e+02	1.76900e+03	4.75150e-02	6.74500e+02
1775	6.75591e+02	1.77500e+03	4.74629e-02	6.77500e+02
1781	6.78557e+02	1.78100e+03	4.73876e-02	6.80500e+02
1787	6.81478e+02	1.78700e+03	4.73499e-02	6.83500e+02
1793	6.84551e+02	1.79300e+03	4.73586e-02	6.86500e+02
1799	6.86708e+02	1.79900e+03	4.71068e-02	6.89500e+02
1805	6.88964e+02	1.80500e+03	4.73116e-02	6.92500e+02
1811	6.90846e+02	1.81100e+03	4.72936e-02	6.95500e+02
1817	6.92144e+02	1.81700e+03	4.73109e-02	6.98500e+02
1820	6.92798e+02	1.82000e+03	4.74309e-02	7.00000e+02