File: Experiments/TUBS/tga_nonisotherm/tga_dynamic_n2_dyn90_powder_3mg_r1.txt
index	ts	t	weight	tr
[#]	[°C]	[s]	[mg]	[°C]
630	1.27309e+02	6.30000e+02	3.01266e+00	1.34996e+02
632	1.30638e+02	6.32000e+02	3.01235e+00	1.37996e+02
634	1.33981e+02	6.34000e+02	3.01193e+00	1.40996e+02
636	1.37327e+02	6.36000e+02	3.01131e+00	1.43996e+02
638	1.40660e+02	6.38000e+02	3.01068e+00	1.46995e+02
640	1.43970e+02	6.40000e+02	3.01002e+00	1.49995e+02
642	1.47289e+02	6.42000e+02	3.00937e+00	1.52995e+02
644	1.50579e+02	6.44000e+02	3.00869e+00	1.55995e+02
646	1.53840e+02	6.46000e+02	3.00794e+00	1.58994e+02
648	1.57097e+02	6.48000e+02	3.00706e+00	1.61994e+02
650	1.60357e+02	6.50000e+02	3.00611e+00	1.64994e+02
652	1.63615e+02	6.52000e+02	3.00503e+00	1.67994e+02
654	1.66835e+02	6.54000e+02	3.00385e+00	1.70993e+02
656	1.70046e+02	6.56000e+02	3.00251e+00	1.73993e+02
658	1.73256e+02	6.58000e+02	3.00104e+00	1.76993e+02
660	1.76444e+02	6.60000e+02	2.99930e+00	1.79993e+02
662	1.79646e+02	6.62000e+02	2.99731e+00	1.82992e+02
664	1.82814e+02	6.64000e+02	2.99486e+00	1.85992e+02
666	1.85997e+02	6.66000e+02	2.99204e+00	1.88992e+02
668	1.89158e+02	6.68000e+02	2.98852e+00	1.91992e+02
670	1.92312e+02	6.70000e+02	2.98445e+00	1.94991e+02
672	1.95472e+02	6.72000e+02	2.97944e+00	1.97991e+02
674	1.98616e+02	6.74000e+02	2.97391e+00	2.00991e+02
676	2.01768e+02	6.76000e+02	2.96753e+00	2.03991e+02
678	2.04896e+02	6.78000e+02	2.96080e+00	2.06990e+02
680	2.08021e+02	6.80000e+02	2.95356e+00	2.09990e+02
682	2.11147e+02	6.82000e+02	2.94629e+00	2.12990e+02
684	2.14272e+02	6.84000e+02	2.93910e+00	2.15990e+02
686	2.17386e+02	6.86000e+02	2.93224e+00	2.18989e+02
688	2.20523e+02	6.88000e+02	2.92605e+00	2.21989e+02
690	2.23642e+02	6.90000e+02	2.92042e+00	2.24989e+02
692	2.26733e+02	6.92000e+02	2.91573e+00	2.27989e+02
694	2.29851e+02	6.94000e+02	2.91156e+00	2.30988e+02
696	2.32944e+02	6.96000e+02	2.90821e+00	2.33988e+02
698	2.36047e+02	6.98000e+02	2.90517e+00	2.36988e+02
700	2.39134e+02	7.00000e+02	2.90259e+00	2.39988e+02
702	2.42230e+02	7.02000e+02	2.90011e+00	2.42987e+02
704	2.45267e+02	7.04000e+02	2.89777e+00	2.45987e+02
706	2.48331e+02	7.06000e+02	2.89544e+00	2.48987e+02
708	2.51404e+02	7.08000e+02	2.89314e+00	2.51987e+02
710	2.54493e+02	7.10000e+02	2.89086e+00	2.54986e+02
712	2.57564e+02	7.12000e+02	2.88858e+00	2.57986e+02
714	2.60659e+02	7.14000e+02	2.88629e+00	2.60986e+02
716	2.63746e+02	7.16000e+02	2.88399e+00	2.63986e+02
718	2.66833e+02	7.18000e+02	2.88171e+00	2.66985e+02
720	2.69924e+02	7.20000e+02	2.87944e+00	2.69985e+02
722	2.72992e+02	7.22000e+02	2.87714e+00	2.72985e+02
724	2.76047e+02	7.24000e+02	2.87483e+00	2.75985e+02
726	2.79105e+02	7.26000e+02	2.87250e+00	2.78984e+02
728	2.82191e+02	7.28000e+02	2.87010e+00	2.81984e+02
730	2.85310e+02	7.30000e+02	2.86759e+00	2.84984e+02
732	2.88497e+02	7.32000e+02	2.86485e+00	2.87984e+02
734	2.91612e+02	7.34000e+02	2.86189e+00	2.90984e+02
736	2.94717e+02	7.36000e+02	2.85848e+00	2.93983e+02
738	2.97671e+02	7.38000e+02	2.85465e+00	2.96983e+02
740	3.00643e+02	7.40000e+02	2.85008e+00	2.99983e+02
742	3.03648e+02	7.42000e+02	2.84496e+00	3.02983e+02
744	3.06701e+02	7.44000e+02	2.83885e+00	3.05982e+02
746	3.09702e+02	7.46000e+02	2.83206e+00	3.08982e+02
748	3.12666e+02	7.48000e+02	2.82409e+00	3.11982e+02
750	3.15612e+02	7.50000e+02	2.81544e+00	3.14982e+02
752	3.18566e+02	7.52000e+02	2.80564e+00	3.17981e+02
754	3.21519e+02	7.54000e+02	2.79524e+00	3.20981e+02
756	3.24514e+02	7.56000e+02	2.78387e+00	3.23981e+02
758	3.27467e+02	7.58000e+02	2.77204e+00	3.26981e+02
760	3.30319e+02	7.60000e+02	2.75941e+00	3.29980e+02
762	3.33176e+02	7.62000e+02	2.74623e+00	3.32980e+02
764	3.36068e+02	7.64000e+02	2.73197e+00	3.35980e+02
766	3.38996e+02	7.66000e+02	2.71671e+00	3.38980e+02
768	3.41980e+02	7.68000e+02	2.69947e+00	3.41979e+02
770	3.44977e+02	7.70000e+02	2.68040e+00	3.44979e+02
772	3.47997e+02	7.72000e+02	2.65827e+00	3.47979e+02
774	3.51024e+02	7.74000e+02	2.63426e+00	3.50979e+02
776	3.54022e+02	7.76000e+02	2.60484e+00	3.53978e+02
778	3.56998e+02	7.78000e+02	2.57160e+00	3.56978e+02
780	3.59983e+02	7.80000e+02	2.53309e+00	3.59978e+02
782	3.62935e+02	7.82000e+02	2.49043e+00	3.62978e+02
784	3.65915e+02	7.84000e+02	2.43953e+00	3.65977e+02
786	3.68890e+02	7.86000e+02	2.38489e+00	3.68977e+02
788	3.71872e+02	7.88000e+02	2.32156e+00	3.71977e+02
790	3.74841e+02	7.90000e+02	2.25434e+00	3.74977e+02
792	3.77815e+02	7.92000e+02	2.17824e+00	3.77976e+02
794	3.80727e+02	7.94000e+02	2.09855e+00	3.80976e+02
796	3.83726e+02	7.96000e+02	2.01064e+00	3.83976e+02
798	3.86637e+02	7.98000e+02	1.91933e+00	3.86976e+02
800	3.89588e+02	8.00000e+02	1.81993e+00	3.89975e+02
802	3.92548e+02	8.02000e+02	1.71738e+00	3.92975e+02
804	3.95491e+02	8.04000e+02	1.60930e+00	3.95975e+02
806	3.98489e+02	8.06000e+02	1.49954e+00	3.98975e+02
808	4.01432e+02	8.08000e+02	1.38713e+00	4.01974e+02
810	4.04347e+02	8.10000e+02	1.27396e+00	4.04974e+02
812	4.07333e+02	8.12000e+02	1.15990e+00	4.07974e+02
814	4.10296e+02	8.14000e+02	1.04636e+00	4.10974e+02
816	4.13277e+02	8.16000e+02	9.34162e-01	4.13973e+02
818	4.16278e+02	8.18000e+02	8.22972e-01	4.16973e+02
820	4.19273e+02	8.20000e+02	7.15764e-01	4.19973e+02
822	4.22341e+02	8.22000e+02	6.12228e-01	4.22973e+02
824	4.25405e+02	8.24000e+02	5.17187e-01	4.25972e+02
826	4.28469e+02	8.26000e+02	4.30046e-01	4.28972e+02
828	4.31529e+02	8.28000e+02	3.52611e-01	4.31972e+02
830	4.34542e+02	8.30000e+02	2.85335e-01	4.34972e+02
832	4.37599e+02	8.32000e+02	2.29103e-01	4.37971e+02
834	4.40657e+02	8.34000e+02	1.81417e-01	4.40971e+02
836	4.43700e+02	8.36000e+02	1.43354e-01	4.43971e+02
838	4.46764e+02	8.38000e+02	1.12986e-01	4.46971e+02
840	4.49838e+02	8.40000e+02	9.08481e-02	4.49970e+02
842	4.52867e+02	8.42000e+02	7.27985e-02	4.52970e+02
844	4.55887e+02	8.44000e+02	6.00473e-02	4.55970e+02
846	4.58851e+02	8.46000e+02	5.10686e-02	4.58970e+02
848	4.61869e+02	8.48000e+02	4.45792e-02	4.61970e+02
850	4.64838e+02	8.50000e+02	3.94207e-02	4.64969e+02
852	4.67817e+02	8.52000e+02	3.61637e-02	4.67969e+02
854	4.70920e+02	8.54000e+02	3.35967e-02	4.70969e+02
856	4.73844e+02	8.56000e+02	3.20742e-02	4.73969e+02
858	4.76745e+02	8.58000e+02	3.08941e-02	4.76968e+02
860	4.79705e+02	8.60000e+02	3.02278e-02	4.79968e+02
862	4.82673e+02	8.62000e+02	2.97030e-02	4.82968e+02
864	4.85672e+02	8.64000e+02	2.93872e-02	4.85968e+02
866	4.88633e+02	8.66000e+02	2.91349e-02	4.88967e+02
868	4.91565e+02	8.68000e+02	2.89792e-02	4.91967e+02
870	4.94494e+02	8.70000e+02	2.88629e-02	4.94967e+02
872	4.97407e+02	8.72000e+02	2.88061e-02	4.97967e+02
874	5.00334e+02	8.74000e+02	2.87702e-02	5.00966e+02
876	5.03268e+02	8.76000e+02	2.87655e-02	5.03966e+02
878	5.06182e+02	8.78000e+02	2.87685e-02	5.06966e+02
880	5.09108e+02	8.80000e+02	2.87703e-02	5.09966e+02
882	5.12061e+02	8.82000e+02	2.87534e-02	5.12965e+02
884	5.15001e+02	8.84000e+02	2.87082e-02	5.15965e+02
886	5.17948e+02	8.86000e+02	2.86487e-02	5.18965e+02
888	5.20888e+02	8.88000e+02	2.85598e-02	5.21965e+02
890	5.23817e+02	8.90000e+02	2.84532e-02	5.24964e+02
892	5.26767e+02	8.92000e+02	2.83239e-02	5.27964e+02
894	5.29716e+02	8.94000e+02	2.81930e-02	5.30964e+02
896	5.32659e+02	8.96000e+02	2.80599e-02	5.33964e+02
898	5.35610e+02	8.98000e+02	2.79395e-02	5.36963e+02
900	5.38583e+02	9.00000e+02	2.78451e-02	5.39963e+02
902	5.41547e+02	9.02000e+02	2.77634e-02	5.42963e+02
904	5.44460e+02	9.04000e+02	2.76799e-02	5.45963e+02
906	5.47406e+02	9.06000e+02	2.75642e-02	5.48962e+02
908	5.50283e+02	9.08000e+02	2.74140e-02	5.51962e+02
910	5.53301e+02	9.10000e+02	2.72769e-02	5.54962e+02
912	5.56230e+02	9.12000e+02	2.71565e-02	5.57962e+02
914	5.59294e+02	9.14000e+02	2.70429e-02	5.60961e+02
916	5.62232e+02	9.16000e+02	2.69493e-02	5.63961e+02
918	5.65052e+02	9.18000e+02	2.68726e-02	5.66961e+02
920	5.67866e+02	9.20000e+02	2.68194e-02	5.69961e+02
922	5.70730e+02	9.22000e+02	2.67692e-02	5.72960e+02
924	5.73581e+02	9.24000e+02	2.67326e-02	5.75960e+02
926	5.76475e+02	9.26000e+02	2.67064e-02	5.78960e+02
928	5.79428e+02	9.28000e+02	2.66789e-02	5.81960e+02
930	5.82352e+02	9.30000e+02	2.66223e-02	5.84959e+02
932	5.85306e+02	9.32000e+02	2.65278e-02	5.87959e+02
934	5.88402e+02	9.34000e+02	2.64294e-02	5.90959e+02
936	5.91352e+02	9.36000e+02	2.63276e-02	5.93959e+02
938	5.94486e+02	9.38000e+02	2.62254e-02	5.96958e+02
940	5.97283e+02	9.40000e+02	2.61268e-02	5.99958e+02
942	6.00188e+02	9.42000e+02	2.60303e-02	6.02958e+02
944	6.03072e+02	9.44000e+02	2.59336e-02	6.05958e+02
946	6.06029e+02	9.46000e+02	2.58265e-02	6.08957e+02
948	6.08978e+02	9.48000e+02	2.57104e-02	6.11957e+02
950	6.11954e+02	9.50000e+02	2.56168e-02	6.14957e+02
952	6.14903e+02	9.52000e+02	2.55670e-02	6.17957e+02
954	6.17836e+02	9.54000e+02	2.55355e-02	6.20956e+02
956	6.20770e+02	9.56000e+02	2.55154e-02	6.23956e+02
958	6.23706e+02	9.58000e+02	2.54825e-02	6.26956e+02
960	6.26639e+02	9.60000e+02	2.54429e-02	6.29956e+02
962	6.29585e+02	9.62000e+02	2.54087e-02	6.32956e+02
964	6.32480e+02	9.64000e+02	2.53719e-02	6.35955e+02
966	6.35374e+02	9.66000e+02	2.53243e-02	6.38955e+02
968	6.38423e+02	9.68000e+02	2.52686e-02	6.41955e+02
970	6.41308e+02	9.70000e+02	2.52133e-02	6.44954e+02
972	6.44228e+02	9.72000e+02	2.51444e-02	6.47954e+02
974	6.47154e+02	9.74000e+02	2.50563e-02	6.50954e+02
976	6.50077e+02	9.76000e+02	2.49602e-02	6.53954e+02
978	6.53035e+02	9.78000e+02	2.48984e-02	6.56953e+02
980	6.56129e+02	9.80000e+02	2.48867e-02	6.59953e+02
982	6.57719e+02	9.82000e+02	2.49098e-02	6.62953e+02
984	6.59434e+02	9.84000e+02	2.50003e-02	6.65953e+02
986	6.61542e+02	9.86000e+02	2.51035e-02	6.68953e+02
988	6.63658e+02	9.88000e+02	2.51779e-02	6.71952e+02
990	6.65804e+02	9.90000e+02	2.51619e-02	6.74952e+02
992	6.67583e+02	9.92000e+02	2.50280e-02	6.77952e+02
994	6.69272e+02	9.94000e+02	2.48959e-02	6.80952e+02
996	6.70981e+02	9.96000e+02	2.47605e-02	6.83951e+02
998	6.72539e+02	9.98000e+02	2.46419e-02	6.86951e+02
1000	6.74004e+02	1.00000e+03	2.45660e-02	6.89951e+02
1002	6.75363e+02	1.00200e+03	2.45106e-02	6.92951e+02
1004	6.76656e+02	1.00400e+03	2.45101e-02	6.95950e+02
1006	6.77922e+02	1.00600e+03	2.45061e-02	6.98950e+02
1007	6.78510e+02	1.00700e+03	2.45041e-02	7.00000e+02