File: Experiments/TUBS/tga_nonisotherm/tga_dynamic_n2_dyn60_piece_1mg_r2.txt
index	ts	t	weight	tr
[#]	[°C]	[s]	[mg]	[°C]
643	1.30362e+02	6.43000e+02	1.03369e+00	1.33000e+02
646	1.33379e+02	6.46000e+02	1.03361e+00	1.36000e+02
649	1.36389e+02	6.49000e+02	1.03358e+00	1.39000e+02
652	1.39376e+02	6.52000e+02	1.03359e+00	1.42000e+02
655	1.42381e+02	6.55000e+02	1.03362e+00	1.45000e+02
658	1.45372e+02	6.58000e+02	1.03365e+00	1.48000e+02
661	1.48359e+02	6.61000e+02	1.03366e+00	1.51000e+02
664	1.51337e+02	6.64000e+02	1.03367e+00	1.54000e+02
667	1.54331e+02	6.67000e+02	1.03364e+00	1.57000e+02
670	1.57307e+02	6.70000e+02	1.03359e+00	1.60000e+02
673	1.60289e+02	6.73000e+02	1.03354e+00	1.63000e+02
676	1.63254e+02	6.76000e+02	1.03349e+00	1.66000e+02
679	1.66228e+02	6.79000e+02	1.03344e+00	1.69000e+02
682	1.69211e+02	6.82000e+02	1.03341e+00	1.72000e+02
685	1.72178e+02	6.85000e+02	1.03341e+00	1.75000e+02
688	1.75163e+02	6.88000e+02	1.03337e+00	1.78000e+02
691	1.78139e+02	6.91000e+02	1.03327e+00	1.81000e+02
694	1.81125e+02	6.94000e+02	1.03313e+00	1.84000e+02
697	1.84090e+02	6.97000e+02	1.03306e+00	1.87000e+02
700	1.87061e+02	7.00000e+02	1.03298e+00	1.90000e+02
703	1.90042e+02	7.03000e+02	1.03286e+00	1.93000e+02
706	1.93032e+02	7.06000e+02	1.03268e+00	1.96000e+02
709	1.96015e+02	7.09000e+02	1.03247e+00	1.99000e+02
712	1.99002e+02	7.12000e+02	1.03222e+00	2.02000e+02
715	2.01990e+02	7.15000e+02	1.03194e+00	2.05000e+02
718	2.04980e+02	7.18000e+02	1.03156e+00	2.08000e+02
721	2.07973e+02	7.21000e+02	1.03105e+00	2.11000e+02
724	2.10961e+02	7.24000e+02	1.03045e+00	2.14000e+02
727	2.13951e+02	7.27000e+02	1.02983e+00	2.17000e+02
730	2.16930e+02	7.30000e+02	1.02918e+00	2.20000e+02
733	2.19917e+02	7.33000e+02	1.02846e+00	2.23000e+02
736	2.22904e+02	7.36000e+02	1.02769e+00	2.26000e+02
739	2.25896e+02	7.39000e+02	1.02691e+00	2.29000e+02
742	2.28875e+02	7.42000e+02	1.02618e+00	2.32000e+02
745	2.31878e+02	7.45000e+02	1.02546e+00	2.35000e+02
748	2.34876e+02	7.48000e+02	1.02472e+00	2.38000e+02
751	2.37884e+02	7.51000e+02	1.02394e+00	2.41000e+02
754	2.40910e+02	7.54000e+02	1.02306e+00	2.44000e+02
757	2.43904e+02	7.57000e+02	1.02217e+00	2.47000e+02
760	2.46900e+02	7.60000e+02	1.02153e+00	2.50000e+02
763	2.49916e+02	7.63000e+02	1.02088e+00	2.53000e+02
766	2.52950e+02	7.66000e+02	1.02005e+00	2.56000e+02
769	2.56020e+02	7.69000e+02	1.01905e+00	2.59000e+02
772	2.59114e+02	7.72000e+02	1.01808e+00	2.62000e+02
775	2.62183e+02	7.75000e+02	1.01711e+00	2.65000e+02
778	2.65248e+02	7.78000e+02	1.01613e+00	2.68000e+02
781	2.68344e+02	7.81000e+02	1.01514e+00	2.71000e+02
784	2.71414e+02	7.84000e+02	1.01411e+00	2.74000e+02
787	2.74436e+02	7.87000e+02	1.01306e+00	2.77000e+02
790	2.77461e+02	7.90000e+02	1.01200e+00	2.80000e+02
793	2.80494e+02	7.93000e+02	1.01098e+00	2.83000e+02
796	2.83614e+02	7.96000e+02	1.00992e+00	2.86000e+02
799	2.86660e+02	7.99000e+02	1.00879e+00	2.89000e+02
802	2.89728e+02	8.02000e+02	1.00750e+00	2.92000e+02
805	2.92745e+02	8.05000e+02	1.00605e+00	2.95000e+02
808	2.95798e+02	8.08000e+02	1.00443e+00	2.98000e+02
811	2.98832e+02	8.11000e+02	1.00274e+00	3.01000e+02
814	3.01892e+02	8.14000e+02	1.00103e+00	3.04000e+02
817	3.04973e+02	8.17000e+02	9.99339e-01	3.07000e+02
820	3.08024e+02	8.20000e+02	9.97535e-01	3.10000e+02
823	3.11059e+02	8.23000e+02	9.95548e-01	3.13000e+02
826	3.14075e+02	8.26000e+02	9.93270e-01	3.16000e+02
829	3.17075e+02	8.29000e+02	9.90813e-01	3.19000e+02
832	3.20108e+02	8.32000e+02	9.88202e-01	3.22000e+02
835	3.23145e+02	8.35000e+02	9.85441e-01	3.25000e+02
838	3.26201e+02	8.38000e+02	9.82456e-01	3.28000e+02
841	3.29281e+02	8.41000e+02	9.79321e-01	3.31000e+02
844	3.32344e+02	8.44000e+02	9.76081e-01	3.34000e+02
847	3.35380e+02	8.47000e+02	9.72751e-01	3.37000e+02
850	3.38400e+02	8.50000e+02	9.69225e-01	3.40000e+02
853	3.41482e+02	8.53000e+02	9.65385e-01	3.43000e+02
856	3.44534e+02	8.56000e+02	9.61107e-01	3.46000e+02
859	3.47589e+02	8.59000e+02	9.56379e-01	3.49000e+02
862	3.50628e+02	8.62000e+02	9.50808e-01	3.52000e+02
865	3.53681e+02	8.65000e+02	9.44268e-01	3.55000e+02
868	3.56708e+02	8.68000e+02	9.36459e-01	3.58000e+02
871	3.59776e+02	8.71000e+02	9.27199e-01	3.61000e+02
874	3.62797e+02	8.74000e+02	9.15396e-01	3.64000e+02
877	3.65848e+02	8.77000e+02	9.01054e-01	3.67000e+02
880	3.68916e+02	8.80000e+02	8.83625e-01	3.70000e+02
883	3.71886e+02	8.83000e+02	8.63131e-01	3.73000e+02
886	3.75020e+02	8.86000e+02	8.37773e-01	3.76000e+02
889	3.78379e+02	8.89000e+02	8.08214e-01	3.79000e+02
892	3.81494e+02	8.92000e+02	7.74285e-01	3.82000e+02
895	3.84550e+02	8.95000e+02	7.36729e-01	3.85000e+02
898	3.87372e+02	8.98000e+02	6.94024e-01	3.88000e+02
901	3.90219e+02	9.01000e+02	6.47755e-01	3.91000e+02
904	3.93066e+02	9.04000e+02	5.98289e-01	3.94000e+02
907	3.96009e+02	9.07000e+02	5.46259e-01	3.97000e+02
910	3.98986e+02	9.10000e+02	4.91469e-01	4.00000e+02
913	4.02000e+02	9.13000e+02	4.36311e-01	4.03000e+02
916	4.05023e+02	9.16000e+02	3.81666e-01	4.06000e+02
919	4.08115e+02	9.19000e+02	3.27856e-01	4.09000e+02
922	4.11277e+02	9.22000e+02	2.76138e-01	4.12000e+02
925	4.14110e+02	9.25000e+02	2.27516e-01	4.15000e+02
928	4.17016e+02	9.28000e+02	1.83250e-01	4.18000e+02
931	4.19856e+02	9.31000e+02	1.43427e-01	4.21000e+02
934	4.22884e+02	9.34000e+02	1.10670e-01	4.24000e+02
937	4.25879e+02	9.37000e+02	8.35909e-02	4.27000e+02
940	4.28797e+02	9.40000e+02	6.17772e-02	4.30000e+02
943	4.31788e+02	9.43000e+02	4.40295e-02	4.33000e+02
946	4.34870e+02	9.46000e+02	3.15380e-02	4.36000e+02
949	4.37777e+02	9.49000e+02	2.21431e-02	4.39000e+02
952	4.41216e+02	9.52000e+02	1.52281e-02	4.42000e+02
955	4.44987e+02	9.55000e+02	1.00068e-02	4.45000e+02
958	4.48350e+02	9.58000e+02	6.70724e-03	4.48000e+02
961	4.51881e+02	9.61000e+02	4.25725e-03	4.51000e+02
964	4.54891e+02	9.64000e+02	2.39581e-03	4.54000e+02
967	4.57912e+02	9.67000e+02	9.43727e-04	4.57000e+02
970	4.60913e+02	9.70000e+02	-5.73865e-05	4.60000e+02
973	4.63743e+02	9.73000e+02	-8.35968e-04	4.63000e+02
976	4.66795e+02	9.76000e+02	-1.39133e-03	4.66000e+02
979	4.69231e+02	9.79000e+02	-1.80237e-03	4.69000e+02
982	4.72044e+02	9.82000e+02	-2.05771e-03	4.72000e+02
985	4.74911e+02	9.85000e+02	-2.22949e-03	4.75000e+02
988	4.77789e+02	9.88000e+02	-2.33623e-03	4.78000e+02
991	4.80863e+02	9.91000e+02	-2.43105e-03	4.81000e+02
994	4.83863e+02	9.94000e+02	-2.52106e-03	4.84000e+02
997	4.86801e+02	9.97000e+02	-2.60248e-03	4.87000e+02
1000	4.89400e+02	1.00000e+03	-2.67768e-03	4.90000e+02
1003	4.92240e+02	1.00300e+03	-2.74281e-03	4.93000e+02
1006	4.94921e+02	1.00600e+03	-2.78861e-03	4.96000e+02
1009	4.97881e+02	1.00900e+03	-2.89170e-03	4.99000e+02
1012	5.01057e+02	1.01200e+03	-3.06241e-03	5.02000e+02
1015	5.04189e+02	1.01500e+03	-3.12706e-03	5.05000e+02
1018	5.07142e+02	1.01800e+03	-3.05372e-03	5.08000e+02
1021	5.09667e+02	1.02100e+03	-3.01702e-03	5.11000e+02
1024	5.12311e+02	1.02400e+03	-3.04224e-03	5.14000e+02
1027	5.15016e+02	1.02700e+03	-3.04679e-03	5.17000e+02
1030	5.17981e+02	1.03000e+03	-3.03235e-03	5.20000e+02
1033	5.21027e+02	1.03300e+03	-3.08550e-03	5.23000e+02
1036	5.23967e+02	1.03600e+03	-3.19797e-03	5.26000e+02
1039	5.26957e+02	1.03900e+03	-3.29683e-03	5.29000e+02
1042	5.29915e+02	1.04200e+03	-3.34907e-03	5.32000e+02
1045	5.33026e+02	1.04500e+03	-3.38243e-03	5.35000e+02
1048	5.36706e+02	1.04800e+03	-3.41869e-03	5.38000e+02
1051	5.39513e+02	1.05100e+03	-3.45096e-03	5.41000e+02
1054	5.42285e+02	1.05400e+03	-3.47609e-03	5.44000e+02
1057	5.45157e+02	1.05700e+03	-3.50945e-03	5.47000e+02
1060	5.48048e+02	1.06000e+03	-3.55357e-03	5.50000e+02
1063	5.50869e+02	1.06300e+03	-3.55799e-03	5.53000e+02
1066	5.53693e+02	1.06600e+03	-3.48694e-03	5.56000e+02
1069	5.56536e+02	1.06900e+03	-3.40953e-03	5.59000e+02
1072	5.59440e+02	1.07200e+03	-3.38001e-03	5.62000e+02
1075	5.62388e+02	1.07500e+03	-3.38386e-03	5.65000e+02
1078	5.65364e+02	1.07800e+03	-3.42299e-03	5.68000e+02
1081	5.68302e+02	1.08100e+03	-3.47002e-03	5.71000e+02
1084	5.71248e+02	1.08400e+03	-3.51403e-03	5.74000e+02
1087	5.74146e+02	1.08700e+03	-3.54276e-03	5.77000e+02
1090	5.76977e+02	1.09000e+03	-3.55827e-03	5.80000e+02
1093	5.80104e+02	1.09300e+03	-3.59108e-03	5.83000e+02
1096	5.83138e+02	1.09600e+03	-3.62980e-03	5.86000e+02
1099	5.86174e+02	1.09900e+03	-3.65485e-03	5.89000e+02
1102	5.89251e+02	1.10200e+03	-3.65126e-03	5.92000e+02
1105	5.92598e+02	1.10500e+03	-3.64135e-03	5.95000e+02
1108	5.95276e+02	1.10800e+03	-3.64723e-03	5.98000e+02
1111	5.97759e+02	1.11100e+03	-3.66680e-03	6.01000e+02
1114	6.00487e+02	1.11400e+03	-3.69982e-03	6.04000e+02
1117	6.03394e+02	1.11700e+03	-3.74124e-03	6.07000e+02
1120	6.06318e+02	1.12000e+03	-3.80201e-03	6.10000e+02
1123	6.09266e+02	1.12300e+03	-3.86204e-03	6.13000e+02
1126	6.12231e+02	1.12600e+03	-3.89372e-03	6.16000e+02
1129	6.15202e+02	1.12900e+03	-3.90511e-03	6.19000e+02
1132	6.18165e+02	1.13200e+03	-3.99928e-03	6.22000e+02
1135	6.21080e+02	1.13500e+03	-4.05418e-03	6.25000e+02
1138	6.24026e+02	1.13800e+03	-3.91863e-03	6.28000e+02
1141	6.27026e+02	1.14100e+03	-3.61147e-03	6.31000e+02
1144	6.30025e+02	1.14400e+03	-3.61451e-03	6.34000e+02
1147	6.33152e+02	1.14700e+03	-3.80478e-03	6.37000e+02
1150	6.36439e+02	1.15000e+03	-4.04707e-03	6.40000e+02
1153	6.39486e+02	1.15300e+03	-4.06896e-03	6.43000e+02
1156	6.42547e+02	1.15600e+03	-4.07444e-03	6.46000e+02
1159	6.45442e+02	1.15900e+03	-4.05525e-03	6.49000e+02
1162	6.48423e+02	1.16200e+03	-4.02260e-03	6.52000e+02
1165	6.51346e+02	1.16500e+03	-4.00451e-03	6.55000e+02
1168	6.54285e+02	1.16800e+03	-4.00005e-03	6.58000e+02
1171	6.57337e+02	1.17100e+03	-4.01431e-03	6.61000e+02
1174	6.60346e+02	1.17400e+03	-4.04204e-03	6.64000e+02
1177	6.63287e+02	1.17700e+03	-4.05659e-03	6.67000e+02
1180	6.66224e+02	1.18000e+03	-4.05035e-03	6.70000e+02
1183	6.69187e+02	1.18300e+03	-4.02259e-03	6.73000e+02
1186	6.71060e+02	1.18600e+03	-3.93353e-03	6.76000e+02
1189	6.73209e+02	1.18900e+03	-3.78390e-03	6.79000e+02
1192	6.75319e+02	1.19200e+03	-3.71535e-03	6.82000e+02
1195	6.77124e+02	1.19500e+03	-3.75531e-03	6.85000e+02
1198	6.78805e+02	1.19800e+03	-3.85381e-03	6.88000e+02
1201	6.80378e+02	1.20100e+03	-3.87527e-03	6.91000e+02
1204	6.81825e+02	1.20400e+03	-3.90241e-03	6.94000e+02
1207	6.83136e+02	1.20700e+03	-3.92200e-03	6.97000e+02
1210	6.84339e+02	1.21000e+03	-3.92770e-03	7.00000e+02