File: Experiments/TUBS/tga_nonisotherm/tga_dynamic_n2_dyn30_powder_1mg_r2.txt
index	ts	t	weight	tr
[#]	[°C]	[s]	[mg]	[°C]
683	1.31057e+02	6.83000e+02	1.02895e+00	1.31500e+02
689	1.34069e+02	6.89000e+02	1.02893e+00	1.34500e+02
695	1.37095e+02	6.95000e+02	1.02874e+00	1.37500e+02
701	1.40083e+02	7.01000e+02	1.02848e+00	1.40500e+02
707	1.43094e+02	7.07000e+02	1.02839e+00	1.43500e+02
713	1.46118e+02	7.13000e+02	1.02823e+00	1.46500e+02
719	1.49120e+02	7.19000e+02	1.02798e+00	1.49500e+02
725	1.52123e+02	7.25000e+02	1.02760e+00	1.52500e+02
731	1.55125e+02	7.31000e+02	1.02719e+00	1.55500e+02
737	1.58156e+02	7.37000e+02	1.02677e+00	1.58500e+02
743	1.61179e+02	7.43000e+02	1.02646e+00	1.61500e+02
749	1.64204e+02	7.49000e+02	1.02595e+00	1.64500e+02
755	1.67224e+02	7.55000e+02	1.02538e+00	1.67500e+02
761	1.70257e+02	7.61000e+02	1.02470e+00	1.70500e+02
767	1.73276e+02	7.67000e+02	1.02379e+00	1.73500e+02
773	1.76312e+02	7.73000e+02	1.02294e+00	1.76500e+02
779	1.79336e+02	7.79000e+02	1.02192e+00	1.79500e+02
785	1.82374e+02	7.85000e+02	1.02041e+00	1.82500e+02
791	1.85408e+02	7.91000e+02	1.01865e+00	1.85500e+02
797	1.88455e+02	7.97000e+02	1.01628e+00	1.88500e+02
803	1.91491e+02	8.03000e+02	1.01356e+00	1.91500e+02
809	1.94542e+02	8.09000e+02	1.01070e+00	1.94500e+02
815	1.97583e+02	8.15000e+02	1.00781e+00	1.97500e+02
821	2.00623e+02	8.21000e+02	1.00498e+00	2.00500e+02
827	2.03700e+02	8.27000e+02	1.00245e+00	2.03500e+02
833	2.06753e+02	8.33000e+02	1.00031e+00	2.06500e+02
839	2.09903e+02	8.39000e+02	9.98425e-01	2.09500e+02
845	2.13053e+02	8.45000e+02	9.96827e-01	2.12500e+02
851	2.16162e+02	8.51000e+02	9.95818e-01	2.15500e+02
857	2.19286e+02	8.57000e+02	9.95270e-01	2.18500e+02
863	2.22419e+02	8.63000e+02	9.94620e-01	2.21500e+02
869	2.25545e+02	8.69000e+02	9.93965e-01	2.24500e+02
875	2.28605e+02	8.75000e+02	9.93275e-01	2.27500e+02
881	2.31673e+02	8.81000e+02	9.92571e-01	2.30500e+02
887	2.34735e+02	8.87000e+02	9.91732e-01	2.33500e+02
893	2.37787e+02	8.93000e+02	9.90999e-01	2.36500e+02
899	2.40825e+02	8.99000e+02	9.90278e-01	2.39500e+02
905	2.43852e+02	9.05000e+02	9.89681e-01	2.42500e+02
911	2.46866e+02	9.11000e+02	9.88978e-01	2.45500e+02
917	2.49904e+02	9.17000e+02	9.88264e-01	2.48500e+02
923	2.52941e+02	9.23000e+02	9.87635e-01	2.51500e+02
929	2.55949e+02	9.29000e+02	9.87199e-01	2.54500e+02
935	2.58956e+02	9.35000e+02	9.86579e-01	2.57500e+02
941	2.61983e+02	9.41000e+02	9.86021e-01	2.60500e+02
947	2.65031e+02	9.47000e+02	9.85560e-01	2.63500e+02
953	2.68064e+02	9.53000e+02	9.85137e-01	2.66500e+02
959	2.71085e+02	9.59000e+02	9.84534e-01	2.69500e+02
965	2.74133e+02	9.65000e+02	9.84062e-01	2.72500e+02
971	2.77148e+02	9.71000e+02	9.83433e-01	2.75500e+02
977	2.80145e+02	9.77000e+02	9.82602e-01	2.78500e+02
983	2.83161e+02	9.83000e+02	9.81645e-01	2.81500e+02
989	2.86190e+02	9.89000e+02	9.80605e-01	2.84500e+02
995	2.89201e+02	9.95000e+02	9.79435e-01	2.87500e+02
1001	2.92237e+02	1.00100e+03	9.77860e-01	2.90500e+02
1007	2.95215e+02	1.00700e+03	9.75629e-01	2.93500e+02
1013	2.98232e+02	1.01300e+03	9.73135e-01	2.96500e+02
1019	3.01190e+02	1.01900e+03	9.70311e-01	2.99500e+02
1025	3.04095e+02	1.02500e+03	9.67071e-01	3.02500e+02
1031	3.07032e+02	1.03100e+03	9.63332e-01	3.05500e+02
1037	3.09951e+02	1.03700e+03	9.59025e-01	3.08500e+02
1043	3.12864e+02	1.04300e+03	9.54094e-01	3.11500e+02
1049	3.15801e+02	1.04900e+03	9.48196e-01	3.14500e+02
1055	3.18761e+02	1.05500e+03	9.42465e-01	3.17500e+02
1061	3.21767e+02	1.06100e+03	9.37026e-01	3.20500e+02
1067	3.24789e+02	1.06700e+03	9.31848e-01	3.23500e+02
1073	3.27801e+02	1.07300e+03	9.26879e-01	3.26500e+02
1079	3.30809e+02	1.07900e+03	9.21418e-01	3.29500e+02
1085	3.33803e+02	1.08500e+03	9.14810e-01	3.32500e+02
1091	3.36794e+02	1.09100e+03	9.07134e-01	3.35500e+02
1097	3.39773e+02	1.09700e+03	8.97840e-01	3.38500e+02
1103	3.42761e+02	1.10300e+03	8.86791e-01	3.41500e+02
1109	3.45752e+02	1.10900e+03	8.73238e-01	3.44500e+02
1115	3.48770e+02	1.11500e+03	8.57059e-01	3.47500e+02
1121	3.51763e+02	1.12100e+03	8.37680e-01	3.50500e+02
1127	3.54747e+02	1.12700e+03	8.15227e-01	3.53500e+02
1133	3.57718e+02	1.13300e+03	7.89179e-01	3.56500e+02
1139	3.60725e+02	1.13900e+03	7.59613e-01	3.59500e+02
1145	3.63744e+02	1.14500e+03	7.26127e-01	3.62500e+02
1151	3.66781e+02	1.15100e+03	6.89571e-01	3.65500e+02
1157	3.69769e+02	1.15700e+03	6.50001e-01	3.68500e+02
1163	3.72740e+02	1.16300e+03	6.07474e-01	3.71500e+02
1169	3.75712e+02	1.16900e+03	5.61930e-01	3.74500e+02
1175	3.78685e+02	1.17500e+03	5.14398e-01	3.77500e+02
1181	3.81685e+02	1.18100e+03	4.65561e-01	3.80500e+02
1187	3.84703e+02	1.18700e+03	4.16155e-01	3.83500e+02
1193	3.87749e+02	1.19300e+03	3.67246e-01	3.86500e+02
1199	3.90756e+02	1.19900e+03	3.19848e-01	3.89500e+02
1205	3.93771e+02	1.20500e+03	2.75411e-01	3.92500e+02
1211	3.96756e+02	1.21100e+03	2.33982e-01	3.95500e+02
1217	3.99720e+02	1.21700e+03	1.96787e-01	3.98500e+02
1223	4.02674e+02	1.22300e+03	1.64042e-01	4.01500e+02
1229	4.05654e+02	1.22900e+03	1.36030e-01	4.04500e+02
1235	4.08656e+02	1.23500e+03	1.12294e-01	4.07500e+02
1241	4.11661e+02	1.24100e+03	9.29790e-02	4.10500e+02
1247	4.14657e+02	1.24700e+03	7.70195e-02	4.13500e+02
1253	4.17643e+02	1.25300e+03	6.49652e-02	4.16500e+02
1259	4.20649e+02	1.25900e+03	5.55170e-02	4.19500e+02
1265	4.23624e+02	1.26500e+03	4.77087e-02	4.22500e+02
1271	4.26603e+02	1.27100e+03	4.25203e-02	4.25500e+02
1277	4.29556e+02	1.27700e+03	3.88396e-02	4.28500e+02
1283	4.32508e+02	1.28300e+03	3.60046e-02	4.31500e+02
1289	4.35475e+02	1.28900e+03	3.40492e-02	4.34500e+02
1295	4.38425e+02	1.29500e+03	3.25236e-02	4.37500e+02
1301	4.41353e+02	1.30100e+03	3.14202e-02	4.40500e+02
1307	4.44288e+02	1.30700e+03	3.07390e-02	4.43500e+02
1313	4.47218e+02	1.31300e+03	3.03768e-02	4.46500e+02
1319	4.50159e+02	1.31900e+03	3.01235e-02	4.49500e+02
1325	4.53086e+02	1.32500e+03	2.99237e-02	4.52500e+02
1331	4.56016e+02	1.33100e+03	2.96505e-02	4.55500e+02
1337	4.58934e+02	1.33700e+03	2.95301e-02	4.58500e+02
1343	4.61854e+02	1.34300e+03	2.94694e-02	4.61500e+02
1349	4.64800e+02	1.34900e+03	2.92223e-02	4.64500e+02
1355	4.67723e+02	1.35500e+03	2.91019e-02	4.67500e+02
1361	4.70645e+02	1.36100e+03	2.90047e-02	4.70500e+02
1367	4.73586e+02	1.36700e+03	2.89318e-02	4.73500e+02
1373	4.76513e+02	1.37300e+03	2.89741e-02	4.76500e+02
1379	4.79446e+02	1.37900e+03	2.88818e-02	4.79500e+02
1385	4.82387e+02	1.38500e+03	2.88158e-02	4.82500e+02
1391	4.85323e+02	1.39100e+03	2.86764e-02	4.85500e+02
1397	4.88280e+02	1.39700e+03	2.85686e-02	4.88500e+02
1403	4.91209e+02	1.40300e+03	2.84059e-02	4.91500e+02
1409	4.94153e+02	1.40900e+03	2.82203e-02	4.94500e+02
1415	4.97094e+02	1.41500e+03	2.82667e-02	4.97500e+02
1421	5.00025e+02	1.42100e+03	2.82133e-02	5.00500e+02
1427	5.02959e+02	1.42700e+03	2.80837e-02	5.03500e+02
1433	5.05899e+02	1.43300e+03	2.80329e-02	5.06500e+02
1439	5.08861e+02	1.43900e+03	2.81106e-02	5.09500e+02
1445	5.11787e+02	1.44500e+03	2.83409e-02	5.12500e+02
1451	5.14735e+02	1.45100e+03	2.74678e-02	5.15500e+02
1457	5.17678e+02	1.45700e+03	2.77333e-02	5.18500e+02
1463	5.20618e+02	1.46300e+03	2.81549e-02	5.21500e+02
1469	5.23573e+02	1.46900e+03	2.80237e-02	5.24500e+02
1475	5.26526e+02	1.47500e+03	2.78451e-02	5.27500e+02
1481	5.29527e+02	1.48100e+03	2.80102e-02	5.30500e+02
1487	5.32455e+02	1.48700e+03	2.80835e-02	5.33500e+02
1493	5.35423e+02	1.49300e+03	2.76323e-02	5.36500e+02
1499	5.38395e+02	1.49900e+03	2.79077e-02	5.39500e+02
1505	5.41369e+02	1.50500e+03	2.78672e-02	5.42500e+02
1511	5.44355e+02	1.51100e+03	2.78116e-02	5.45500e+02
1517	5.47327e+02	1.51700e+03	2.78276e-02	5.48500e+02
1523	5.50305e+02	1.52300e+03	2.78224e-02	5.51500e+02
1529	5.53283e+02	1.52900e+03	2.77759e-02	5.54500e+02
1535	5.56260e+02	1.53500e+03	2.75397e-02	5.57500e+02
1541	5.59242e+02	1.54100e+03	2.78504e-02	5.60500e+02
1547	5.62221e+02	1.54700e+03	2.79914e-02	5.63500e+02
1553	5.65212e+02	1.55300e+03	2.79263e-02	5.66500e+02
1559	5.68216e+02	1.55900e+03	2.79558e-02	5.69500e+02
1565	5.71217e+02	1.56500e+03	2.79110e-02	5.72500e+02
1571	5.74224e+02	1.57100e+03	2.78725e-02	5.75500e+02
1577	5.77226e+02	1.57700e+03	2.78229e-02	5.78500e+02
1583	5.80205e+02	1.58300e+03	2.78408e-02	5.81500e+02
1589	5.83139e+02	1.58900e+03	2.77623e-02	5.84500e+02
1595	5.86105e+02	1.59500e+03	2.77977e-02	5.87500e+02
1601	5.89134e+02	1.60100e+03	2.78714e-02	5.90500e+02
1607	5.92407e+02	1.60700e+03	2.77405e-02	5.93500e+02
1613	5.95361e+02	1.61300e+03	2.77240e-02	5.96500e+02
1619	5.98296e+02	1.61900e+03	2.76613e-02	5.99500e+02
1625	6.01214e+02	1.62500e+03	2.75788e-02	6.02500e+02
1631	6.04146e+02	1.63100e+03	2.75870e-02	6.05500e+02
1637	6.07065e+02	1.63700e+03	2.76904e-02	6.08500e+02
1643	6.09980e+02	1.64300e+03	2.77234e-02	6.11500e+02
1649	6.12911e+02	1.64900e+03	2.77079e-02	6.14500e+02
1655	6.15812e+02	1.65500e+03	2.77246e-02	6.17500e+02
1661	6.18744e+02	1.66100e+03	2.76896e-02	6.20500e+02
1667	6.21650e+02	1.66700e+03	2.75749e-02	6.23500e+02
1673	6.24596e+02	1.67300e+03	2.75971e-02	6.26500e+02
1679	6.27552e+02	1.67900e+03	2.76362e-02	6.29500e+02
1685	6.30513e+02	1.68500e+03	2.75593e-02	6.32500e+02
1691	6.33509e+02	1.69100e+03	2.74892e-02	6.35500e+02
1697	6.36503e+02	1.69700e+03	2.74881e-02	6.38500e+02
1703	6.39491e+02	1.70300e+03	2.75438e-02	6.41500e+02
1709	6.42479e+02	1.70900e+03	2.75496e-02	6.44500e+02
1715	6.45454e+02	1.71500e+03	2.75287e-02	6.47500e+02
1721	6.48459e+02	1.72100e+03	2.73294e-02	6.50500e+02
1727	6.51448e+02	1.72700e+03	2.72249e-02	6.53500e+02
1733	6.54439e+02	1.73300e+03	2.77640e-02	6.56500e+02
1739	6.57447e+02	1.73900e+03	2.79474e-02	6.59500e+02
1745	6.60444e+02	1.74500e+03	2.76693e-02	6.62500e+02
1751	6.63476e+02	1.75100e+03	2.76374e-02	6.65500e+02
1757	6.66483e+02	1.75700e+03	2.76351e-02	6.68500e+02
1763	6.69488e+02	1.76300e+03	2.75441e-02	6.71500e+02
1769	6.72489e+02	1.76900e+03	2.74390e-02	6.74500e+02
1775	6.75484e+02	1.77500e+03	2.74495e-02	6.77500e+02
1781	6.78462e+02	1.78100e+03	2.74351e-02	6.80500e+02
1787	6.81454e+02	1.78700e+03	2.72693e-02	6.83500e+02
1793	6.84419e+02	1.79300e+03	2.72440e-02	6.86500e+02
1799	6.86347e+02	1.79900e+03	2.78313e-02	6.89500e+02
1805	6.88385e+02	1.80500e+03	2.79690e-02	6.92500e+02
1811	6.90090e+02	1.81100e+03	2.78361e-02	6.95500e+02
1817	6.91524e+02	1.81700e+03	2.77459e-02	6.98500e+02
1820	6.92145e+02	1.82000e+03	2.77872e-02	7.00000e+02