File: Experiments/TUBS/tga_nonisotherm/tga_dynamic_n2_dyn10_piece_1mg_r1.txt
index	ts	t	weight	tr
[#]	[°C]	[s]	[mg]	[°C]
843	1.30783e+02	8.43000e+02	1.03569e+00	1.30500e+02
862	1.33974e+02	8.62000e+02	1.03563e+00	1.33667e+02
881	1.37157e+02	8.81000e+02	1.03534e+00	1.36833e+02
900	1.40371e+02	9.00000e+02	1.03548e+00	1.40000e+02
919	1.43574e+02	9.19000e+02	1.03541e+00	1.43167e+02
938	1.46786e+02	9.38000e+02	1.03591e+00	1.46333e+02
957	1.50017e+02	9.57000e+02	1.03546e+00	1.49500e+02
976	1.53218e+02	9.76000e+02	1.03507e+00	1.52667e+02
995	1.56443e+02	9.95000e+02	1.03492e+00	1.55833e+02
1014	1.59668e+02	1.01400e+03	1.03479e+00	1.59000e+02
1033	1.62880e+02	1.03300e+03	1.03480e+00	1.62167e+02
1052	1.66099e+02	1.05200e+03	1.03458e+00	1.65333e+02
1071	1.69308e+02	1.07100e+03	1.03434e+00	1.68500e+02
1090	1.72512e+02	1.09000e+03	1.03368e+00	1.71667e+02
1109	1.75719e+02	1.10900e+03	1.03356e+00	1.74833e+02
1128	1.78959e+02	1.12800e+03	1.03281e+00	1.78000e+02
1147	1.82157e+02	1.14700e+03	1.03187e+00	1.81167e+02
1166	1.85370e+02	1.16600e+03	1.03066e+00	1.84333e+02
1185	1.88571e+02	1.18500e+03	1.02929e+00	1.87500e+02
1204	1.91791e+02	1.20400e+03	1.02787e+00	1.90667e+02
1223	1.95008e+02	1.22300e+03	1.02613e+00	1.93833e+02
1242	1.98220e+02	1.24200e+03	1.02450e+00	1.97000e+02
1261	2.01417e+02	1.26100e+03	1.02252e+00	2.00167e+02
1280	2.04641e+02	1.28000e+03	1.02117e+00	2.03333e+02
1299	2.07852e+02	1.29900e+03	1.01925e+00	2.06500e+02
1318	2.11044e+02	1.31800e+03	1.01747e+00	2.09667e+02
1337	2.14242e+02	1.33700e+03	1.01628e+00	2.12833e+02
1356	2.17452e+02	1.35600e+03	1.01479e+00	2.16000e+02
1375	2.20641e+02	1.37500e+03	1.01305e+00	2.19167e+02
1394	2.23832e+02	1.39400e+03	1.01161e+00	2.22333e+02
1413	2.27038e+02	1.41300e+03	1.00989e+00	2.25500e+02
1432	2.30215e+02	1.43200e+03	1.00849e+00	2.28667e+02
1451	2.33407e+02	1.45100e+03	1.00701e+00	2.31833e+02
1470	2.36600e+02	1.47000e+03	1.00552e+00	2.35000e+02
1489	2.39778e+02	1.48900e+03	1.00418e+00	2.38167e+02
1508	2.42980e+02	1.50800e+03	1.00270e+00	2.41333e+02
1527	2.46169e+02	1.52700e+03	1.00153e+00	2.44500e+02
1546	2.49334e+02	1.54600e+03	9.99846e-01	2.47667e+02
1565	2.52511e+02	1.56500e+03	9.98603e-01	2.50833e+02
1584	2.55680e+02	1.58400e+03	9.97058e-01	2.54000e+02
1603	2.58865e+02	1.60300e+03	9.95931e-01	2.57167e+02
1622	2.62041e+02	1.62200e+03	9.94570e-01	2.60333e+02
1641	2.65224e+02	1.64100e+03	9.93158e-01	2.63500e+02
1660	2.68402e+02	1.66000e+03	9.91697e-01	2.66667e+02
1679	2.71578e+02	1.67900e+03	9.89997e-01	2.69833e+02
1698	2.74761e+02	1.69800e+03	9.88537e-01	2.73000e+02
1717	2.77944e+02	1.71700e+03	9.86291e-01	2.76167e+02
1736	2.81143e+02	1.73600e+03	9.84312e-01	2.79333e+02
1755	2.84346e+02	1.75500e+03	9.81983e-01	2.82500e+02
1774	2.87520e+02	1.77400e+03	9.79209e-01	2.85667e+02
1793	2.90689e+02	1.79300e+03	9.75637e-01	2.88833e+02
1812	2.93909e+02	1.81200e+03	9.71793e-01	2.92000e+02
1831	2.97092e+02	1.83100e+03	9.67400e-01	2.95167e+02
1850	3.00258e+02	1.85000e+03	9.62650e-01	2.98333e+02
1869	3.03379e+02	1.86900e+03	9.57744e-01	3.01500e+02
1888	3.06494e+02	1.88800e+03	9.52268e-01	3.04667e+02
1907	3.09564e+02	1.90700e+03	9.46802e-01	3.07833e+02
1926	3.12574e+02	1.92600e+03	9.40915e-01	3.11000e+02
1945	3.15589e+02	1.94500e+03	9.34864e-01	3.14167e+02
1964	3.18682e+02	1.96400e+03	9.26301e-01	3.17333e+02
1983	3.21804e+02	1.98300e+03	9.17369e-01	3.20500e+02
2002	3.24947e+02	2.00200e+03	9.08605e-01	3.23667e+02
2021	3.28100e+02	2.02100e+03	8.99432e-01	3.26833e+02
2040	3.31252e+02	2.04000e+03	8.88196e-01	3.30000e+02
2059	3.34405e+02	2.05900e+03	8.74608e-01	3.33167e+02
2078	3.37552e+02	2.07800e+03	8.58907e-01	3.36333e+02
2097	3.40711e+02	2.09700e+03	8.39466e-01	3.39500e+02
2116	3.43860e+02	2.11600e+03	8.15836e-01	3.42667e+02
2135	3.47001e+02	2.13500e+03	7.87231e-01	3.45833e+02
2154	3.50132e+02	2.15400e+03	7.52611e-01	3.49000e+02
2173	3.53271e+02	2.17300e+03	7.12615e-01	3.52167e+02
2192	3.56433e+02	2.19200e+03	6.66569e-01	3.55333e+02
2211	3.59606e+02	2.21100e+03	6.13881e-01	3.58500e+02
2230	3.62791e+02	2.23000e+03	5.55435e-01	3.61667e+02
2249	3.66037e+02	2.24900e+03	4.93634e-01	3.64833e+02
2268	3.69301e+02	2.26800e+03	4.33598e-01	3.68000e+02
2287	3.72587e+02	2.28700e+03	3.70838e-01	3.71167e+02
2306	3.75711e+02	2.30600e+03	3.09407e-01	3.74333e+02
2325	3.78972e+02	2.32500e+03	2.50280e-01	3.77500e+02
2344	3.82134e+02	2.34400e+03	1.95992e-01	3.80667e+02
2363	3.85290e+02	2.36300e+03	1.49169e-01	3.83833e+02
2382	3.88420e+02	2.38200e+03	1.10761e-01	3.87000e+02
2401	3.91564e+02	2.40100e+03	8.03801e-02	3.90167e+02
2420	3.94717e+02	2.42000e+03	5.71876e-02	3.93333e+02
2439	3.97865e+02	2.43900e+03	4.02121e-02	3.96500e+02
2458	4.01027e+02	2.45800e+03	2.76735e-02	3.99667e+02
2477	4.04189e+02	2.47700e+03	1.85301e-02	4.02833e+02
2496	4.07316e+02	2.49600e+03	1.19944e-02	4.06000e+02
2515	4.10468e+02	2.51500e+03	6.68425e-03	4.09167e+02
2534	4.13638e+02	2.53400e+03	2.98152e-03	4.12333e+02
2553	4.16803e+02	2.55300e+03	1.24814e-04	4.15500e+02
2572	4.19948e+02	2.57200e+03	-2.27881e-03	4.18667e+02
2591	4.23041e+02	2.59100e+03	-4.12929e-03	4.21833e+02
2610	4.26128e+02	2.61000e+03	-6.20267e-03	4.25000e+02
2629	4.29240e+02	2.62900e+03	-7.10348e-03	4.28167e+02
2648	4.32357e+02	2.64800e+03	-7.89897e-03	4.31333e+02
2667	4.35465e+02	2.66700e+03	-8.44184e-03	4.34500e+02
2686	4.38498e+02	2.68600e+03	-8.86201e-03	4.37667e+02
2705	4.41608e+02	2.70500e+03	-8.95213e-03	4.40833e+02
2724	4.44737e+02	2.72400e+03	-9.15814e-03	4.44000e+02
2743	4.47859e+02	2.74300e+03	-9.13415e-03	4.47167e+02
2762	4.50993e+02	2.76200e+03	-9.26805e-03	4.50333e+02
2781	4.54149e+02	2.78100e+03	-9.63581e-03	4.53500e+02
2800	4.57281e+02	2.80000e+03	-9.49939e-03	4.56667e+02
2819	4.60436e+02	2.81900e+03	-9.94138e-03	4.59833e+02
2838	4.63575e+02	2.83800e+03	-9.98414e-03	4.63000e+02
2857	4.66729e+02	2.85700e+03	-1.00319e-02	4.66167e+02
2876	4.69852e+02	2.87600e+03	-9.98222e-03	4.69333e+02
2895	4.72990e+02	2.89500e+03	-1.01572e-02	4.72500e+02
2914	4.76103e+02	2.91400e+03	-1.01660e-02	4.75667e+02
2933	4.79245e+02	2.93300e+03	-1.03065e-02	4.78833e+02
2952	4.82397e+02	2.95200e+03	-1.00904e-02	4.82000e+02
2971	4.85550e+02	2.97100e+03	-1.02963e-02	4.85167e+02
2990	4.88717e+02	2.99000e+03	-1.04868e-02	4.88333e+02
3009	4.91882e+02	3.00900e+03	-1.02309e-02	4.91500e+02
3028	4.95044e+02	3.02800e+03	-1.01349e-02	4.94667e+02
3047	4.98179e+02	3.04700e+03	-1.02186e-02	4.97833e+02
3066	5.01317e+02	3.06600e+03	-1.03805e-02	5.01000e+02
3085	5.04460e+02	3.08500e+03	-1.04011e-02	5.04167e+02
3104	5.07616e+02	3.10400e+03	-1.01795e-02	5.07333e+02
3123	5.10750e+02	3.12300e+03	-1.04823e-02	5.10500e+02
3142	5.13883e+02	3.14200e+03	-1.02656e-02	5.13667e+02
3161	5.17026e+02	3.16100e+03	-1.02394e-02	5.16833e+02
3180	5.20182e+02	3.18000e+03	-1.03981e-02	5.20000e+02
3199	5.23350e+02	3.19900e+03	-1.04066e-02	5.23167e+02
3218	5.26587e+02	3.21800e+03	-1.03628e-02	5.26333e+02
3237	5.29826e+02	3.23700e+03	-1.03385e-02	5.29500e+02
3256	5.33129e+02	3.25600e+03	-1.04759e-02	5.32667e+02
3275	5.36237e+02	3.27500e+03	-1.03327e-02	5.35833e+02
3294	5.39387e+02	3.29400e+03	-1.05076e-02	5.39000e+02
3313	5.42508e+02	3.31300e+03	-1.06497e-02	5.42167e+02
3332	5.45663e+02	3.33200e+03	-1.01960e-02	5.45333e+02
3351	5.48791e+02	3.35100e+03	-1.05295e-02	5.48500e+02
3370	5.51924e+02	3.37000e+03	-1.05194e-02	5.51667e+02
3389	5.55060e+02	3.38900e+03	-1.05957e-02	5.54833e+02
3408	5.58192e+02	3.40800e+03	-1.09585e-02	5.58000e+02
3427	5.61323e+02	3.42700e+03	-1.08943e-02	5.61167e+02
3446	5.64471e+02	3.44600e+03	-1.09919e-02	5.64333e+02
3465	5.67600e+02	3.46500e+03	-1.10264e-02	5.67500e+02
3484	5.70713e+02	3.48400e+03	-1.11101e-02	5.70667e+02
3503	5.73827e+02	3.50300e+03	-1.08905e-02	5.73833e+02
3522	5.76939e+02	3.52200e+03	-1.11486e-02	5.77000e+02
3541	5.80046e+02	3.54100e+03	-1.10564e-02	5.80167e+02
3560	5.83155e+02	3.56000e+03	-1.10840e-02	5.83333e+02
3579	5.86264e+02	3.57900e+03	-1.12944e-02	5.86500e+02
3598	5.89391e+02	3.59800e+03	-1.12069e-02	5.89667e+02
3617	5.92515e+02	3.61700e+03	-1.11645e-02	5.92833e+02
3636	5.95655e+02	3.63600e+03	-1.10937e-02	5.96000e+02
3655	5.98794e+02	3.65500e+03	-1.12291e-02	5.99167e+02
3674	6.01942e+02	3.67400e+03	-1.11681e-02	6.02333e+02
3693	6.05109e+02	3.69300e+03	-1.10819e-02	6.05500e+02
3712	6.08237e+02	3.71200e+03	-1.12172e-02	6.08667e+02
3731	6.11392e+02	3.73100e+03	-1.11695e-02	6.11833e+02
3750	6.14551e+02	3.75000e+03	-1.13360e-02	6.15000e+02
3769	6.17681e+02	3.76900e+03	-1.13544e-02	6.18167e+02
3788	6.20819e+02	3.78800e+03	-1.11573e-02	6.21333e+02
3807	6.23955e+02	3.80700e+03	-1.12819e-02	6.24500e+02
3826	6.27091e+02	3.82600e+03	-1.11787e-02	6.27667e+02
3845	6.30229e+02	3.84500e+03	-1.09945e-02	6.30833e+02
3864	6.33388e+02	3.86400e+03	-1.10960e-02	6.34000e+02
3883	6.36546e+02	3.88300e+03	-1.09688e-02	6.37167e+02
3902	6.39711e+02	3.90200e+03	-1.11333e-02	6.40333e+02
3921	6.42837e+02	3.92100e+03	-1.11366e-02	6.43500e+02
3940	6.45979e+02	3.94000e+03	-1.14136e-02	6.46667e+02
3959	6.49122e+02	3.95900e+03	-1.11264e-02	6.49833e+02
3978	6.52281e+02	3.97800e+03	-1.12071e-02	6.53000e+02
3997	6.55453e+02	3.99700e+03	-1.11343e-02	6.56167e+02
4016	6.58628e+02	4.01600e+03	-1.12140e-02	6.59333e+02
4035	6.61811e+02	4.03500e+03	-1.11736e-02	6.62500e+02
4054	6.64976e+02	4.05400e+03	-1.12710e-02	6.65667e+02
4073	6.68155e+02	4.07300e+03	-1.12389e-02	6.68833e+02
4092	6.71325e+02	4.09200e+03	-1.11330e-02	6.72000e+02
4111	6.74485e+02	4.11100e+03	-1.10975e-02	6.75167e+02
4130	6.77628e+02	4.13000e+03	-1.11853e-02	6.78333e+02
4149	6.80776e+02	4.14900e+03	-1.14072e-02	6.81500e+02
4168	6.83931e+02	4.16800e+03	-1.12551e-02	6.84667e+02
4187	6.87070e+02	4.18700e+03	-1.13157e-02	6.87833e+02
4206	6.90214e+02	4.20600e+03	-1.09248e-02	6.91000e+02
4225	6.93388e+02	4.22500e+03	-1.12199e-02	6.94167e+02
4244	6.95987e+02	4.24400e+03	-1.13926e-02	6.97333e+02
4260	6.97370e+02	4.26000e+03	-1.14941e-02	7.00000e+02