File: Experiments/TUBS/tga_nonisotherm/tga_dynamic_n2low30_dyn30_piece_3mg_r1.txt
Index	Ts	t	Weight	Tr
[#]	[°C]	[s]	[mg]	[°C]
680	1.30063e+02	6.80000e+02	2.98502	130.0
690	1.35165e+02	6.90000e+02	2.98459	135.0
700	1.40270e+02	7.00000e+02	2.98446	140.0
710	1.45320e+02	7.10000e+02	2.98435	145.0
720	1.50378e+02	7.20000e+02	2.98399	150.0
730	1.55464e+02	7.30000e+02	2.98364	155.0
740	1.60572e+02	7.40000e+02	2.98329	160.0
750	1.65639e+02	7.50000e+02	2.98288	165.0
760	1.70745e+02	7.60000e+02	2.98231	170.0
770	1.75848e+02	7.70000e+02	2.98185	175.0
780	1.80954e+02	7.80000e+02	2.98131	180.0
790	1.86070e+02	7.90000e+02	2.98069	185.0
800	1.91177e+02	8.00000e+02	2.97959	190.0
810	1.96287e+02	8.10000e+02	2.97795	195.0
820	2.01312e+02	8.20000e+02	2.97576	200.0
830	2.06369e+02	8.30000e+02	2.97295	205.0
840	2.11465e+02	8.40000e+02	2.96979	210.0
850	2.16869e+02	8.50000e+02	2.96624	215.0
860	2.22320e+02	8.60000e+02	2.96259	220.0
870	2.27532e+02	8.70000e+02	2.95898	225.0
880	2.32580e+02	8.80000e+02	2.95521	230.0
890	2.37700e+02	8.90000e+02	2.95115	235.0
900	2.42827e+02	9.00000e+02	2.94711	240.0
910	2.48018e+02	9.10000e+02	2.94266	245.0
920	2.53225e+02	9.20000e+02	2.93816	250.0
930	2.58376e+02	9.30000e+02	2.93346	255.0
940	2.63565e+02	9.40000e+02	2.92849	260.0
950	2.68741e+02	9.50000e+02	2.92335	265.0
960	2.73882e+02	9.60000e+02	2.91807	270.0
970	2.78945e+02	9.70000e+02	2.91239	275.0
980	2.84312e+02	9.80000e+02	2.90638	280.0
990	2.89380e+02	9.90000e+02	2.90014	285.0
1000	2.94482e+02	1.00000e+03	2.89307	290.0
1010	2.99605e+02	1.01000e+03	2.88473	295.0
1020	3.04504e+02	1.02000e+03	2.87534	300.0
1030	3.09668e+02	1.03000e+03	2.86334	305.0
1040	3.14579e+02	1.04000e+03	2.84985	310.0
1050	3.19681e+02	1.05000e+03	2.83469	315.0
1060	3.24439e+02	1.06000e+03	2.81815	320.0
1070	3.28975e+02	1.07000e+03	2.80025	325.0
1080	3.32730e+02	1.08000e+03	2.77948	330.0
1090	3.37448e+02	1.09000e+03	2.75522	335.0
1100	3.42407e+02	1.10000e+03	2.72756	340.0
1110	3.47354e+02	1.11000e+03	2.69322	345.0
1120	3.52310e+02	1.12000e+03	2.64613	350.0
1130	3.57758e+02	1.13000e+03	2.58042	355.0
1140	3.62914e+02	1.14000e+03	2.48336	360.0
1150	3.68122e+02	1.15000e+03	2.3456	365.0
1160	3.73053e+02	1.16000e+03	2.16792	370.0
1170	3.78097e+02	1.17000e+03	1.95379	375.0
1180	3.82848e+02	1.18000e+03	1.71071	380.0
1190	3.87897e+02	1.19000e+03	1.45215	385.0
1200	3.92975e+02	1.20000e+03	1.18798	390.0
1210	3.97735e+02	1.21000e+03	0.927488	395.0
1220	4.02727e+02	1.22000e+03	0.670849	400.0
1230	4.07947e+02	1.23000e+03	0.43616	405.0
1240	4.13178e+02	1.24000e+03	0.26152	410.0
1250	4.18068e+02	1.25000e+03	0.144848	415.0
1260	4.23083e+02	1.26000e+03	0.0738493	420.0
1270	4.27981e+02	1.27000e+03	0.0331239	425.0
1280	4.32989e+02	1.28000e+03	0.0110769	430.0
1290	4.37935e+02	1.29000e+03	-0.00120307	435.0
1300	4.42852e+02	1.30000e+03	-0.00826381	440.0
1310	4.47751e+02	1.31000e+03	-0.0129627	445.0
1320	4.52678e+02	1.32000e+03	-0.0161241	450.0
1330	4.57597e+02	1.33000e+03	-0.0177838	455.0
1340	4.62495e+02	1.34000e+03	-0.0183554	460.0
1350	4.67487e+02	1.35000e+03	-0.018509	465.0
1360	4.72484e+02	1.36000e+03	-0.0188158	470.0
1370	4.77378e+02	1.37000e+03	-0.0190634	475.0
1380	4.82275e+02	1.38000e+03	-0.0193181	480.0
1390	4.87261e+02	1.39000e+03	-0.0194263	485.0
1400	4.92010e+02	1.40000e+03	-0.0196132	490.0
1410	4.96858e+02	1.41000e+03	-0.0196843	495.0
1420	5.01653e+02	1.42000e+03	-0.0199559	500.0
1430	5.06418e+02	1.43000e+03	-0.0203257	505.0
1440	5.11248e+02	1.44000e+03	-0.0203729	510.0
1450	5.16127e+02	1.45000e+03	-0.0204921	515.0
1460	5.21040e+02	1.46000e+03	-0.0207071	520.0
1470	5.25886e+02	1.47000e+03	-0.0208252	525.0
1480	5.30758e+02	1.48000e+03	-0.0208497	530.0
1490	5.35673e+02	1.49000e+03	-0.0211642	535.0
1500	5.40586e+02	1.50000e+03	-0.0216467	540.0
1510	5.45469e+02	1.51000e+03	-0.0213026	545.0
1520	5.50431e+02	1.52000e+03	-0.0213318	550.0
1530	5.55364e+02	1.53000e+03	-0.0216971	555.0
1540	5.60287e+02	1.54000e+03	-0.0217431	560.0
1550	5.65214e+02	1.55000e+03	-0.0218552	565.0
1560	5.70168e+02	1.56000e+03	-0.0221487	570.0
1570	5.75124e+02	1.57000e+03	-0.0223295	575.0
1580	5.80165e+02	1.58000e+03	-0.022477	580.0
1590	5.85148e+02	1.59000e+03	-0.0226211	585.0
1600	5.90211e+02	1.60000e+03	-0.0229917	590.0
1610	5.95370e+02	1.61000e+03	-0.0233377	595.0
1620	6.01127e+02	1.62000e+03	-0.0231147	600.0
1630	6.06145e+02	1.63000e+03	-0.0233436	605.0
1640	6.11252e+02	1.64000e+03	-0.0235088	610.0
1650	6.16403e+02	1.65000e+03	-0.0236068	615.0
1660	6.21328e+02	1.66000e+03	-0.0235207	620.0
1670	6.26171e+02	1.67000e+03	-0.0236461	625.0
1680	6.31180e+02	1.68000e+03	-0.0234875	630.0
1690	6.36174e+02	1.69000e+03	-0.0233497	635.0
1700	6.41345e+02	1.70000e+03	-0.02358	640.0
1710	6.46436e+02	1.71000e+03	-0.0236576	645.0
1720	6.51347e+02	1.72000e+03	-0.0236251	650.0
1730	6.56416e+02	1.73000e+03	-0.023815	655.0
1740	6.61375e+02	1.74000e+03	-0.0236696	660.0
1750	6.66261e+02	1.75000e+03	-0.0236342	665.0
1760	6.71263e+02	1.76000e+03	-0.0236337	670.0
1770	6.76240e+02	1.77000e+03	-0.0236161	675.0
1780	6.81313e+02	1.78000e+03	-0.0237607	680.0
1790	6.86551e+02	1.79000e+03	-0.0238853	685.0
1800	6.90816e+02	1.80000e+03	-0.0238181	690.0
1810	6.94410e+02	1.81000e+03	-0.023836	695.0
1820	6.96508e+02	1.82000e+03	-0.0239167	700.0
1830	6.97942e+02	1.83000e+03	-0.024108	700.0
1840	6.98836e+02	1.84000e+03	-0.0241628	700.0
1850	6.99454e+02	1.85000e+03	-0.0239734	700.0
1860	6.99958e+02	1.86000e+03	-0.0239629	700.0
1870	7.00384e+02	1.87000e+03	-0.0240572	700.0
1880	7.00711e+02	1.88000e+03	-0.0239315	700.0
1890	7.01005e+02	1.89000e+03	-0.0240002	700.0
1900	7.01242e+02	1.90000e+03	-0.0240441	700.0
1910	7.01416e+02	1.91000e+03	-0.0240954	700.0
1920	7.01529e+02	1.92000e+03	-0.0242447	700.0
1930	7.01624e+02	1.93000e+03	-0.0240949	700.0
1940	7.01711e+02	1.94000e+03	-0.0239902	700.0
1950	7.01792e+02	1.95000e+03	-0.0241009	700.0
1960	7.01845e+02	1.96000e+03	-0.024252	700.0
1970	7.01895e+02	1.97000e+03	-0.0242728	700.0
1980	7.01927e+02	1.98000e+03	-0.0242611	700.0
1990	7.01965e+02	1.99000e+03	-0.0242557	700.0
2000	7.01984e+02	2.00000e+03	-0.0243228	700.0
2010	7.02002e+02	2.01000e+03	-0.024162	700.0
2020	7.02018e+02	2.02000e+03	-0.0242651	700.0
2030	7.02032e+02	2.03000e+03	-0.0242383	700.0
2040	7.02048e+02	2.04000e+03	-0.0243507	700.0
2050	7.02055e+02	2.05000e+03	-0.024366	700.0
2060	7.02064e+02	2.06000e+03	-0.024376	700.0
2070	7.02071e+02	2.07000e+03	-0.024413	700.0
2080	7.02076e+02	2.08000e+03	-0.0245857	700.0
2090	7.02075e+02	2.09000e+03	-0.0244961	700.0
2100	7.02091e+02	2.10000e+03	-0.0244693	700.0
2110	7.02089e+02	2.11000e+03	-0.0245266	700.0
2120	7.02095e+02	2.12000e+03	-0.0247254	700.0
2130	7.02096e+02	2.13000e+03	-0.0246797	700.0
2140	7.02089e+02	2.14000e+03	-0.0246306	700.0
2150	7.02100e+02	2.15000e+03	-0.0246531	700.0
2160	7.02092e+02	2.16000e+03	-0.0247116	700.0
2170	7.02102e+02	2.17000e+03	-0.0247272	700.0
2180	7.02102e+02	2.18000e+03	-0.0247203	700.0
2190	7.02103e+02	2.19000e+03	-0.0248236	700.0
2200	7.02111e+02	2.20000e+03	-0.0247776	700.0
2210	7.02108e+02	2.21000e+03	-0.0249129	700.0
2220	7.02115e+02	2.22000e+03	-0.0248256	700.0
2230	7.02112e+02	2.23000e+03	-0.0248515	700.0
2240	7.02117e+02	2.24000e+03	-0.0248143	700.0
2250	7.02120e+02	2.25000e+03	-0.0246031	700.0
2260	7.02133e+02	2.26000e+03	-0.0247766	700.0
2270	7.02127e+02	2.27000e+03	-0.0251383	700.0
2280	7.02124e+02	2.28000e+03	-0.0244651	700.0
2290	7.02126e+02	2.29000e+03	-0.0247295	700.0
2300	7.02131e+02	2.30000e+03	-0.0249832	700.0
2310	7.02130e+02	2.31000e+03	-0.0249578	700.0
2320	7.02131e+02	2.32000e+03	-0.0249036	700.0
2330	7.02139e+02	2.33000e+03	-0.0250421	700.0
2340	7.02134e+02	2.34000e+03	-0.0249383	700.0
2350	7.02126e+02	2.35000e+03	-0.0249417	700.0
2360	7.02141e+02	2.36000e+03	-0.025061	700.0
2370	7.02142e+02	2.37000e+03	-0.0251037	700.0
2380	7.02142e+02	2.38000e+03	-0.0250773	700.0
2390	7.02156e+02	2.39000e+03	-0.0250579	700.0
2400	7.02155e+02	2.40000e+03	-0.0249708	700.0
2410	7.02156e+02	2.41000e+03	-0.0249623	700.0
2420	7.02157e+02	2.42000e+03	-0.0251526	700.0
2430	7.02170e+02	2.43000e+03	-0.0253073	700.0
2440	7.02161e+02	2.44000e+03	-0.0253246	700.0
2450	7.02160e+02	2.45000e+03	-0.02538	700.0
2460	7.02163e+02	2.46000e+03	-0.0253133	700.0
2470	7.02162e+02	2.47000e+03	-0.0253657	700.0
2480	7.02167e+02	2.48000e+03	-0.0253008	700.0
2490	7.02162e+02	2.49000e+03	-0.0253137	700.0
2500	7.02166e+02	2.50000e+03	-0.0253399	700.0
2510	7.02165e+02	2.51000e+03	-0.0253782	700.0
2520	7.02165e+02	2.52000e+03	-0.0253939	700.0
2530	7.02155e+02	2.53000e+03	-0.0252263	700.0
2540	7.02165e+02	2.54000e+03	-0.0254607	700.0
2550	7.02149e+02	2.55000e+03	-0.0252171	700.0
2560	7.02153e+02	2.56000e+03	-0.0253888	700.0
2570	7.02141e+02	2.57000e+03	-0.0252634	700.0
2580	7.02148e+02	2.58000e+03	-0.0254413	700.0
2590	7.02132e+02	2.59000e+03	-0.0253784	700.0
2600	7.02140e+02	2.60000e+03	-0.0253973	700.0
2610	7.02140e+02	2.61000e+03	-0.0254361	700.0
2620	7.02143e+02	2.62000e+03	-0.0254016	700.0
2630	7.02144e+02	2.63000e+03	-0.0255549	700.0
2640	7.02135e+02	2.64000e+03	-0.0252859	700.0
2650	7.02131e+02	2.65000e+03	-0.0253773	700.0
2660	7.02132e+02	2.66000e+03	-0.0253699	700.0
2670	7.02126e+02	2.67000e+03	-0.0253179	700.0
2680	7.02125e+02	2.68000e+03	-0.0252557	700.0
2690	7.02125e+02	2.69000e+03	-0.025271	700.0
2700	7.02126e+02	2.70000e+03	-0.0253194	700.0
2710	7.02123e+02	2.71000e+03	-0.02528	700.0
2720	7.02128e+02	2.72000e+03	-0.0253044	700.0