File: Experiments/TUBS/tga_nonisotherm/tga_dynamic_n2low20_dyn30_piece_3mg_r2.txt
Index	Ts	t	Weight	Tr
[#]	[°C]	[s]	[mg]	[°C]
681	1.30486e+02	6.81000e+02	3.03618	130.5
691	1.35560e+02	6.91000e+02	3.03594	135.5
701	1.40634e+02	7.01000e+02	3.03584	140.5
711	1.45711e+02	7.11000e+02	3.03515	145.5
721	1.50785e+02	7.21000e+02	3.03539	150.5
731	1.55866e+02	7.31000e+02	3.03478	155.5
741	1.60947e+02	7.41000e+02	3.03452	160.5
751	1.66049e+02	7.51000e+02	3.03423	165.5
761	1.71134e+02	7.61000e+02	3.03377	170.5
771	1.76227e+02	7.71000e+02	3.03302	175.5
781	1.81333e+02	7.81000e+02	3.03225	180.5
791	1.86440e+02	7.91000e+02	3.0317	185.5
801	1.91560e+02	8.01000e+02	3.03084	190.5
811	1.96671e+02	8.11000e+02	3.02948	195.5
821	2.01805e+02	8.21000e+02	3.02737	200.5
831	2.06935e+02	8.31000e+02	3.02471	205.5
841	2.12039e+02	8.41000e+02	3.02163	210.5
851	2.17146e+02	8.51000e+02	3.0183	215.5
861	2.22244e+02	8.61000e+02	3.0149	220.5
871	2.27319e+02	8.71000e+02	3.01163	225.5
881	2.32410e+02	8.81000e+02	3.00825	230.5
891	2.37509e+02	8.91000e+02	3.0047	235.5
901	2.42577e+02	9.01000e+02	3.001	240.5
911	2.47665e+02	9.11000e+02	2.99711	245.5
921	2.52737e+02	9.21000e+02	2.99289	250.5
931	2.57844e+02	9.31000e+02	2.9885	255.5
941	2.63115e+02	9.41000e+02	2.98412	260.5
951	2.68210e+02	9.51000e+02	2.97928	265.5
961	2.73355e+02	9.61000e+02	2.97399	270.5
971	2.78490e+02	9.71000e+02	2.96763	275.5
981	2.83573e+02	9.81000e+02	2.95852	280.5
991	2.88635e+02	9.91000e+02	2.95021	285.5
1001	2.93730e+02	1.00100e+03	2.94139	290.5
1011	2.98769e+02	1.01100e+03	2.93149	295.5
1021	3.03811e+02	1.02100e+03	2.92008	300.5
1031	3.08850e+02	1.03100e+03	2.907	305.5
1041	3.13804e+02	1.04100e+03	2.89083	310.5
1051	3.18732e+02	1.05100e+03	2.87349	315.5
1061	3.23595e+02	1.06100e+03	2.85496	320.5
1071	3.28424e+02	1.07100e+03	2.83514	325.5
1081	3.33161e+02	1.08100e+03	2.81283	330.5
1091	3.38138e+02	1.09100e+03	2.78751	335.5
1101	3.43131e+02	1.10100e+03	2.75684	340.5
1111	3.48099e+02	1.11100e+03	2.71719	345.5
1121	3.53057e+02	1.12100e+03	2.66404	350.5
1131	3.58023e+02	1.13100e+03	2.59261	355.5
1141	3.62954e+02	1.14100e+03	2.49022	360.5
1151	3.67914e+02	1.15100e+03	2.35541	365.5
1161	3.72862e+02	1.16100e+03	2.18477	370.5
1171	3.77854e+02	1.17100e+03	1.98455	375.5
1181	3.82884e+02	1.18100e+03	1.75913	380.5
1191	3.87921e+02	1.19100e+03	1.51266	385.5
1201	3.92918e+02	1.20100e+03	1.25765	390.5
1211	3.97923e+02	1.21100e+03	1.00022	395.5
1221	4.02998e+02	1.22100e+03	0.734087	400.5
1231	4.08118e+02	1.23100e+03	0.479371	405.5
1241	4.13270e+02	1.24100e+03	0.288908	410.5
1251	4.18401e+02	1.25100e+03	0.165027	415.5
1261	4.23531e+02	1.26100e+03	0.0928859	420.5
1271	4.28621e+02	1.27100e+03	0.052631	425.5
1281	4.33658e+02	1.28100e+03	0.0320199	430.5
1291	4.38633e+02	1.29100e+03	0.0204591	435.5
1301	4.43585e+02	1.30100e+03	0.0138471	440.5
1311	4.48506e+02	1.31100e+03	0.00922076	445.5
1321	4.53490e+02	1.32100e+03	0.00688363	450.5
1331	4.58430e+02	1.33100e+03	0.00550542	455.5
1341	4.63471e+02	1.34100e+03	0.00524454	460.5
1351	4.68403e+02	1.35100e+03	0.00504582	465.5
1361	4.73359e+02	1.36100e+03	0.00451355	470.5
1371	4.78263e+02	1.37100e+03	0.00426517	475.5
1381	4.83169e+02	1.38100e+03	0.00426923	480.5
1391	4.88080e+02	1.39100e+03	0.00423495	485.5
1401	4.93017e+02	1.40100e+03	0.00381236	490.5
1411	4.97947e+02	1.41100e+03	0.0036028	495.5
1421	5.02912e+02	1.42100e+03	0.00347516	500.5
1431	5.07831e+02	1.43100e+03	0.00340052	505.5
1441	5.12672e+02	1.44100e+03	0.00342849	510.5
1451	5.17547e+02	1.45100e+03	0.00329653	515.5
1461	5.22465e+02	1.46100e+03	0.00318534	520.5
1471	5.27400e+02	1.47100e+03	0.00309146	525.5
1481	5.32454e+02	1.48100e+03	0.00306095	530.5
1491	5.37616e+02	1.49100e+03	0.00286954	535.5
1501	5.42598e+02	1.50100e+03	0.0027273	540.5
1511	5.47601e+02	1.51100e+03	0.00278583	545.5
1521	5.52464e+02	1.52100e+03	0.00259507	550.5
1531	5.57327e+02	1.53100e+03	0.00253526	555.5
1541	5.62164e+02	1.54100e+03	0.00256741	560.5
1551	5.66969e+02	1.55100e+03	0.00237066	565.5
1561	5.71543e+02	1.56100e+03	0.00211192	570.5
1571	5.76097e+02	1.57100e+03	0.0019267	575.5
1581	5.80802e+02	1.58100e+03	0.00183534	580.5
1591	5.85688e+02	1.59100e+03	0.00170279	585.5
1601	5.90583e+02	1.60100e+03	0.0016645	590.5
1611	5.95513e+02	1.61100e+03	0.00156114	595.5
1621	6.00518e+02	1.62100e+03	0.00175287	600.5
1631	6.05509e+02	1.63100e+03	0.00164925	605.5
1641	6.10473e+02	1.64100e+03	0.00111641	610.5
1651	6.15662e+02	1.65100e+03	0.00138743	615.5
1661	6.21178e+02	1.66100e+03	0.00139707	620.5
1671	6.26166e+02	1.67100e+03	0.00130637	625.5
1681	6.31168e+02	1.68100e+03	0.00101073	630.5
1691	6.36156e+02	1.69100e+03	0.000959834	635.5
1701	6.41144e+02	1.70100e+03	0.000800905	640.5
1711	6.45994e+02	1.71100e+03	0.000595727	645.5
1721	6.50864e+02	1.72100e+03	0.000653538	650.5
1731	6.55716e+02	1.73100e+03	0.000436704	655.5
1741	6.60592e+02	1.74100e+03	8.13077e-05	660.5
1751	6.65488e+02	1.75100e+03	-5.65032e-05	665.5
1761	6.70444e+02	1.76100e+03	0.00024716	670.5
1771	6.75403e+02	1.77100e+03	0.000142807	675.5
1781	6.80374e+02	1.78100e+03	0.000136437	680.5
1791	6.85345e+02	1.79100e+03	0.000110884	685.5
1801	6.88940e+02	1.80100e+03	0.000126697	690.5
1811	6.91820e+02	1.81100e+03	-0.000198806	695.5
1821	6.93962e+02	1.82100e+03	-7.3142e-05	700.0
1831	6.95586e+02	1.83100e+03	-0.000151403	700.0
1841	6.96737e+02	1.84100e+03	-0.000304841	700.0
1851	6.97641e+02	1.85100e+03	-0.000369499	700.0
1861	6.98293e+02	1.86100e+03	-0.000385287	700.0
1871	6.98806e+02	1.87100e+03	-0.000476963	700.0
1881	6.99194e+02	1.88100e+03	-0.000514683	700.0
1891	6.99523e+02	1.89100e+03	-0.000458576	700.0
1901	6.99777e+02	1.90100e+03	-0.000478056	700.0
1911	6.99973e+02	1.91100e+03	-0.000613377	700.0
1921	7.00133e+02	1.92100e+03	-0.000687009	700.0
1931	7.00270e+02	1.93100e+03	-0.000671398	700.0
1941	7.00374e+02	1.94100e+03	-0.00069206	700.0
1951	7.00464e+02	1.95100e+03	-0.000790752	700.0
1961	7.00539e+02	1.96100e+03	-0.000654266	700.0
1971	7.00604e+02	1.97100e+03	-0.000742322	700.0
1981	7.00654e+02	1.98100e+03	-0.000826462	700.0
1991	7.00696e+02	1.99100e+03	-0.00101709	700.0
2001	7.00733e+02	2.00100e+03	-0.000906961	700.0
2011	7.00783e+02	2.01100e+03	-0.000833777	700.0
2021	7.00795e+02	2.02100e+03	-0.00104479	700.0
2031	7.00824e+02	2.03100e+03	-0.00117304	700.0
2041	7.00837e+02	2.04100e+03	-0.00112201	700.0
2051	7.00853e+02	2.05100e+03	-0.0012028	700.0
2061	7.00867e+02	2.06100e+03	-0.00126826	700.0
2071	7.00876e+02	2.07100e+03	-0.00125774	700.0
2081	7.00886e+02	2.08100e+03	-0.00144218	700.0
2091	7.00899e+02	2.09100e+03	-0.00149089	700.0
2101	7.00904e+02	2.10100e+03	-0.00149294	700.0
2111	7.00902e+02	2.11100e+03	-0.00167522	700.0
2121	7.00919e+02	2.12100e+03	-0.00157601	700.0
2131	7.00920e+02	2.13100e+03	-0.00168815	700.0
2141	7.00926e+02	2.14100e+03	-0.00164565	700.0
2151	7.00926e+02	2.15100e+03	-0.00196817	700.0
2161	7.00914e+02	2.16100e+03	-0.00193564	700.0
2171	7.00921e+02	2.17100e+03	-0.00172812	700.0
2181	7.00919e+02	2.18100e+03	-0.00181366	700.0
2191	7.00917e+02	2.19100e+03	-0.00199426	700.0
2201	7.00912e+02	2.20100e+03	-0.00187148	700.0
2211	7.00912e+02	2.21100e+03	-0.00173482	700.0
2221	7.00911e+02	2.22100e+03	-0.00177276	700.0
2231	7.00915e+02	2.23100e+03	-0.00182558	700.0
2241	7.00898e+02	2.24100e+03	-0.00195748	700.0
2251	7.00900e+02	2.25100e+03	-0.0019883	700.0
2261	7.00892e+02	2.26100e+03	-0.00211444	700.0
2271	7.00893e+02	2.27100e+03	-0.00197789	700.0
2281	7.00894e+02	2.28100e+03	-0.00214358	700.0
2291	7.00886e+02	2.29100e+03	-0.00210182	700.0
2301	7.00890e+02	2.30100e+03	-0.00209882	700.0
2311	7.00887e+02	2.31100e+03	-0.0019445	700.0
2321	7.00887e+02	2.32100e+03	-0.00214953	700.0
2331	7.00878e+02	2.33100e+03	-0.00213045	700.0
2341	7.00887e+02	2.34100e+03	-0.00218264	700.0
2351	7.00885e+02	2.35100e+03	-0.00227532	700.0
2361	7.00884e+02	2.36100e+03	-0.00226277	700.0
2371	7.00882e+02	2.37100e+03	-0.00207503	700.0
2381	7.00880e+02	2.38100e+03	-0.00214647	700.0
2391	7.00879e+02	2.39100e+03	-0.00225683	700.0
2401	7.00874e+02	2.40100e+03	-0.00239212	700.0
2411	7.00873e+02	2.41100e+03	-0.0022387	700.0
2421	7.00867e+02	2.42100e+03	-0.00223771	700.0
2431	7.00882e+02	2.43100e+03	-0.00265497	700.0
2441	7.00869e+02	2.44100e+03	-0.00218422	700.0
2451	7.00870e+02	2.45100e+03	-0.00212215	700.0
2461	7.00881e+02	2.46100e+03	-0.00225728	700.0
2471	7.00868e+02	2.47100e+03	-0.00236403	700.0
2481	7.00864e+02	2.48100e+03	-0.0022096	700.0
2491	7.00872e+02	2.49100e+03	-0.00226761	700.0
2501	7.00876e+02	2.50100e+03	-0.00226828	700.0
2511	7.00869e+02	2.51100e+03	-0.00220267	700.0
2521	7.00867e+02	2.52100e+03	-0.00229277	700.0
2531	7.00873e+02	2.53100e+03	-0.00225989	700.0
2541	7.00861e+02	2.54100e+03	-0.00220087	700.0
2551	7.00875e+02	2.55100e+03	-0.0023386	700.0
2561	7.00868e+02	2.56100e+03	-0.00238541	700.0
2571	7.00872e+02	2.57100e+03	-0.00246136	700.0
2581	7.00877e+02	2.58100e+03	-0.00235674	700.0
2591	7.00869e+02	2.59100e+03	-0.00226981	700.0
2601	7.00877e+02	2.60100e+03	-0.00233344	700.0
2611	7.00878e+02	2.61100e+03	-0.00230482	700.0
2621	7.00875e+02	2.62100e+03	-0.00243455	700.0
2631	7.00877e+02	2.63100e+03	-0.00248124	700.0
2641	7.00885e+02	2.64100e+03	-0.00232037	700.0
2651	7.00884e+02	2.65100e+03	-0.00225099	700.0
2661	7.00879e+02	2.66100e+03	-0.00230956	700.0
2671	7.00879e+02	2.67100e+03	-0.00258137	700.0
2681	7.00876e+02	2.68100e+03	-0.00253654	700.0
2691	7.00889e+02	2.69100e+03	-0.00238802	700.0
2701	7.00882e+02	2.70100e+03	-0.00235812	700.0
2711	7.00889e+02	2.71100e+03	-0.00233032	700.0
2720	7.00890e+02	2.72000e+03	-0.00250445	700.0