File: Experiments/TUBS/tga_nonisotherm/tga_dynamic_n2_dyn30_piece_1mg_ega.txt
index	ts	t	weight	tr
[#]	[°C]	[s]	[mg]	[°C]
683	1.28913e+02	6.83000e+02	9.43312e-01	1.31500e+02
690	1.32481e+02	6.90000e+02	9.43157e-01	1.35000e+02
697	1.35922e+02	6.97000e+02	9.43060e-01	1.38500e+02
704	1.39353e+02	7.04000e+02	9.42908e-01	1.42000e+02
711	1.42796e+02	7.11000e+02	9.42633e-01	1.45500e+02
718	1.46319e+02	7.18000e+02	9.37749e-01	1.49000e+02
725	1.49798e+02	7.25000e+02	9.41089e-01	1.52500e+02
732	1.53298e+02	7.32000e+02	9.43339e-01	1.56000e+02
739	1.56789e+02	7.39000e+02	9.43549e-01	1.59500e+02
746	1.60286e+02	7.46000e+02	9.43296e-01	1.63000e+02
753	1.63798e+02	7.53000e+02	9.43032e-01	1.66500e+02
760	1.67310e+02	7.60000e+02	9.42741e-01	1.70000e+02
767	1.70856e+02	7.67000e+02	9.42481e-01	1.73500e+02
774	1.74340e+02	7.74000e+02	9.39315e-01	1.77000e+02
781	1.77875e+02	7.81000e+02	9.37433e-01	1.80500e+02
788	1.81430e+02	7.88000e+02	9.41647e-01	1.84000e+02
795	1.84945e+02	7.95000e+02	9.42361e-01	1.87500e+02
802	1.88469e+02	8.02000e+02	9.41952e-01	1.91000e+02
809	1.91990e+02	8.09000e+02	9.41448e-01	1.94500e+02
816	1.95502e+02	8.16000e+02	9.41028e-01	1.98000e+02
823	1.99070e+02	8.23000e+02	9.40466e-01	2.01500e+02
830	2.02541e+02	8.30000e+02	9.39166e-01	2.05000e+02
837	2.06162e+02	8.37000e+02	9.32338e-01	2.08500e+02
844	2.09730e+02	8.44000e+02	9.35989e-01	2.12000e+02
851	2.13317e+02	8.51000e+02	9.37713e-01	2.15500e+02
858	2.16949e+02	8.58000e+02	9.36987e-01	2.19000e+02
865	2.20488e+02	8.65000e+02	9.32103e-01	2.22500e+02
872	2.24072e+02	8.72000e+02	9.32113e-01	2.26000e+02
879	2.27643e+02	8.79000e+02	9.34381e-01	2.29500e+02
886	2.31274e+02	8.86000e+02	9.33804e-01	2.33000e+02
893	2.35038e+02	8.93000e+02	9.30458e-01	2.36500e+02
900	2.38660e+02	9.00000e+02	9.27927e-01	2.40000e+02
907	2.42284e+02	9.07000e+02	9.30082e-01	2.43500e+02
914	2.45971e+02	9.14000e+02	9.29500e-01	2.47000e+02
921	2.49516e+02	9.21000e+02	9.28388e-01	2.50500e+02
928	2.53117e+02	9.28000e+02	9.27173e-01	2.54000e+02
935	2.56862e+02	9.35000e+02	9.25888e-01	2.57500e+02
942	2.60540e+02	9.42000e+02	9.24589e-01	2.61000e+02
949	2.64008e+02	9.49000e+02	9.22496e-01	2.64500e+02
956	2.67766e+02	9.56000e+02	9.15563e-01	2.68000e+02
963	2.71337e+02	9.63000e+02	9.18694e-01	2.71500e+02
970	2.74786e+02	9.70000e+02	9.19571e-01	2.75000e+02
977	2.78381e+02	9.77000e+02	9.18302e-01	2.78500e+02
984	2.81924e+02	9.84000e+02	9.16745e-01	2.82000e+02
991	2.85443e+02	9.91000e+02	9.15176e-01	2.85500e+02
998	2.88963e+02	9.98000e+02	9.13620e-01	2.89000e+02
1005	2.92450e+02	1.00500e+03	9.11906e-01	2.92500e+02
1012	2.95918e+02	1.01200e+03	9.05805e-01	2.96000e+02
1019	2.99477e+02	1.01900e+03	9.03076e-01	2.99500e+02
1026	3.03003e+02	1.02600e+03	9.04918e-01	3.03000e+02
1033	3.06605e+02	1.03300e+03	9.02860e-01	3.06500e+02
1040	3.10181e+02	1.04000e+03	8.99894e-01	3.10000e+02
1047	3.13696e+02	1.04700e+03	8.96580e-01	3.13500e+02
1054	3.17211e+02	1.05400e+03	8.93040e-01	3.17000e+02
1061	3.20713e+02	1.06100e+03	8.89213e-01	3.20500e+02
1068	3.24012e+02	1.06800e+03	8.83866e-01	3.24000e+02
1075	3.27661e+02	1.07500e+03	8.70703e-01	3.27500e+02
1082	3.31196e+02	1.08200e+03	8.74177e-01	3.31000e+02
1089	3.34737e+02	1.08900e+03	8.72117e-01	3.34500e+02
1096	3.38270e+02	1.09600e+03	8.66943e-01	3.38000e+02
1103	3.41809e+02	1.10300e+03	8.60559e-01	3.41500e+02
1110	3.45330e+02	1.11000e+03	8.52721e-01	3.45000e+02
1117	3.48847e+02	1.11700e+03	8.43293e-01	3.48500e+02
1124	3.52350e+02	1.12400e+03	8.31280e-01	3.52000e+02
1131	3.55823e+02	1.13100e+03	8.10416e-01	3.55500e+02
1138	3.59331e+02	1.13800e+03	7.89245e-01	3.59000e+02
1145	3.62843e+02	1.14500e+03	7.67536e-01	3.62500e+02
1152	3.66344e+02	1.15200e+03	7.37605e-01	3.66000e+02
1159	3.69860e+02	1.15900e+03	7.01187e-01	3.69500e+02
1166	3.73361e+02	1.16600e+03	6.55357e-01	3.73000e+02
1173	3.76852e+02	1.17300e+03	6.02352e-01	3.76500e+02
1180	3.80319e+02	1.18000e+03	5.45567e-01	3.80000e+02
1187	3.83722e+02	1.18700e+03	4.83820e-01	3.83500e+02
1194	3.87270e+02	1.19400e+03	4.16006e-01	3.87000e+02
1201	3.90827e+02	1.20100e+03	3.58392e-01	3.90500e+02
1208	3.93921e+02	1.20800e+03	2.98357e-01	3.94000e+02
1215	3.97364e+02	1.21500e+03	2.38214e-01	3.97500e+02
1222	4.00804e+02	1.22200e+03	1.80484e-01	4.01000e+02
1229	4.04281e+02	1.22900e+03	1.28263e-01	4.04500e+02
1236	4.07763e+02	1.23600e+03	8.46264e-02	4.08000e+02
1243	4.11216e+02	1.24300e+03	5.00685e-02	4.11500e+02
1250	4.14808e+02	1.25000e+03	2.41961e-02	4.15000e+02
1257	4.18316e+02	1.25700e+03	5.30149e-03	4.18500e+02
1264	4.21815e+02	1.26400e+03	-7.90068e-03	4.22000e+02
1271	4.25394e+02	1.27100e+03	-1.67850e-02	4.25500e+02
1278	4.28991e+02	1.27800e+03	-2.24225e-02	4.29000e+02
1285	4.32438e+02	1.28500e+03	-2.60395e-02	4.32500e+02
1292	4.35886e+02	1.29200e+03	-2.84919e-02	4.36000e+02
1299	4.39400e+02	1.29900e+03	-3.01091e-02	4.39500e+02
1306	4.42897e+02	1.30600e+03	-3.26809e-02	4.43000e+02
1313	4.46301e+02	1.31300e+03	-3.62601e-02	4.46500e+02
1320	4.49795e+02	1.32000e+03	-3.31563e-02	4.50000e+02
1327	4.53340e+02	1.32700e+03	-3.24847e-02	4.53500e+02
1334	4.56892e+02	1.33400e+03	-3.24343e-02	4.57000e+02
1341	4.60320e+02	1.34100e+03	-3.25108e-02	4.60500e+02
1348	4.63749e+02	1.34800e+03	-3.26064e-02	4.64000e+02
1355	4.67235e+02	1.35500e+03	-3.26857e-02	4.67500e+02
1362	4.70735e+02	1.36200e+03	-3.27095e-02	4.71000e+02
1369	4.74262e+02	1.36900e+03	-3.27179e-02	4.74500e+02
1376	4.77707e+02	1.37600e+03	-3.26948e-02	4.78000e+02
1383	4.81066e+02	1.38300e+03	-3.26996e-02	4.81500e+02
1390	4.84504e+02	1.39000e+03	-3.27266e-02	4.85000e+02
1397	4.87918e+02	1.39700e+03	-3.27751e-02	4.88500e+02
1404	4.91446e+02	1.40400e+03	-3.29086e-02	4.92000e+02
1411	4.94848e+02	1.41100e+03	-3.28931e-02	4.95500e+02
1418	4.98336e+02	1.41800e+03	-3.28314e-02	4.99000e+02
1425	5.01755e+02	1.42500e+03	-3.50825e-02	5.02500e+02
1432	5.05222e+02	1.43200e+03	-3.77684e-02	5.06000e+02
1439	5.08726e+02	1.43900e+03	-3.38642e-02	5.09500e+02
1446	5.12161e+02	1.44600e+03	-3.29448e-02	5.13000e+02
1453	5.15583e+02	1.45300e+03	-3.28287e-02	5.16500e+02
1460	5.18979e+02	1.46000e+03	-3.27999e-02	5.20000e+02
1467	5.22385e+02	1.46700e+03	-3.28491e-02	5.23500e+02
1474	5.25906e+02	1.47400e+03	-3.27669e-02	5.27000e+02
1481	5.29363e+02	1.48100e+03	-3.27116e-02	5.30500e+02
1488	5.32779e+02	1.48800e+03	-3.27617e-02	5.34000e+02
1495	5.36160e+02	1.49500e+03	-3.27670e-02	5.37500e+02
1502	5.39542e+02	1.50200e+03	-3.26544e-02	5.41000e+02
1509	5.42970e+02	1.50900e+03	-3.24869e-02	5.44500e+02
1516	5.46409e+02	1.51600e+03	-3.24024e-02	5.48000e+02
1523	5.49855e+02	1.52300e+03	-3.24524e-02	5.51500e+02
1530	5.53314e+02	1.53000e+03	-3.24948e-02	5.55000e+02
1537	5.56788e+02	1.53700e+03	-3.24308e-02	5.58500e+02
1544	5.60268e+02	1.54400e+03	-3.23828e-02	5.62000e+02
1551	5.63811e+02	1.55100e+03	-3.22809e-02	5.65500e+02
1558	5.67404e+02	1.55800e+03	-3.21816e-02	5.69000e+02
1565	5.70720e+02	1.56500e+03	-3.21155e-02	5.72500e+02
1572	5.74144e+02	1.57200e+03	-3.20218e-02	5.76000e+02
1579	5.77408e+02	1.57900e+03	-3.18677e-02	5.79500e+02
1586	5.80793e+02	1.58600e+03	-3.17345e-02	5.83000e+02
1593	5.84204e+02	1.59300e+03	-3.16201e-02	5.86500e+02
1600	5.87605e+02	1.60000e+03	-3.16389e-02	5.90000e+02
1607	5.91010e+02	1.60700e+03	-3.14565e-02	5.93500e+02
1614	5.94421e+02	1.61400e+03	-3.12863e-02	5.97000e+02
1621	5.97863e+02	1.62100e+03	-3.12268e-02	6.00500e+02
1628	6.01294e+02	1.62800e+03	-3.10817e-02	6.04000e+02
1635	6.04755e+02	1.63500e+03	-3.08465e-02	6.07500e+02
1642	6.08583e+02	1.64200e+03	-3.07435e-02	6.11000e+02
1649	6.12072e+02	1.64900e+03	-3.06998e-02	6.14500e+02
1656	6.15448e+02	1.65600e+03	-3.06031e-02	6.18000e+02
1663	6.18900e+02	1.66300e+03	-3.05980e-02	6.21500e+02
1670	6.22428e+02	1.67000e+03	-3.05548e-02	6.25000e+02
1677	6.25957e+02	1.67700e+03	-3.04473e-02	6.28500e+02
1684	6.29446e+02	1.68400e+03	-3.03588e-02	6.32000e+02
1691	6.32966e+02	1.69100e+03	-3.02638e-02	6.35500e+02
1698	6.36481e+02	1.69800e+03	-3.01340e-02	6.39000e+02
1705	6.40014e+02	1.70500e+03	-3.01177e-02	6.42500e+02
1712	6.43575e+02	1.71200e+03	-2.99749e-02	6.46000e+02
1719	6.47039e+02	1.71900e+03	-2.98291e-02	6.49500e+02
1726	6.50520e+02	1.72600e+03	-2.97900e-02	6.53000e+02
1733	6.54254e+02	1.73300e+03	-2.96766e-02	6.56500e+02
1740	6.57834e+02	1.74000e+03	-2.96836e-02	6.60000e+02
1747	6.61398e+02	1.74700e+03	-2.96796e-02	6.63500e+02
1754	6.64910e+02	1.75400e+03	-2.96836e-02	6.67000e+02
1761	6.68359e+02	1.76100e+03	-2.96330e-02	6.70500e+02
1768	6.71836e+02	1.76800e+03	-2.95867e-02	6.74000e+02
1775	6.75375e+02	1.77500e+03	-2.95752e-02	6.77500e+02
1782	6.78905e+02	1.78200e+03	-3.33650e-02	6.81000e+02
1789	6.82334e+02	1.78900e+03	-3.33361e-02	6.84500e+02
1796	6.85181e+02	1.79600e+03	-3.00909e-02	6.88000e+02
1803	6.87609e+02	1.80300e+03	-2.94295e-02	6.91500e+02
1810	6.89634e+02	1.81000e+03	-2.95312e-02	6.95000e+02
1817	6.91275e+02	1.81700e+03	-2.96333e-02	6.98500e+02
1820	6.91958e+02	1.82000e+03	-2.96792e-02	7.00000e+02