File: Experiments/TUBS/tga_nonisotherm/tga_dynamic_n2_dyn120_powder_3mg_r2.txt
index	ts	t	weight	tr
[#]	[°C]	[s]	[mg]	[°C]
623	1.19089e+02	6.23000e+02	3.06270e+00	1.36000e+02
625	1.23836e+02	6.25000e+02	3.06263e+00	1.40000e+02
627	1.28427e+02	6.27000e+02	3.06254e+00	1.44000e+02
629	1.32734e+02	6.29000e+02	3.06247e+00	1.48000e+02
631	1.37219e+02	6.31000e+02	3.06229e+00	1.52000e+02
633	1.41741e+02	6.33000e+02	3.06215e+00	1.56000e+02
635	1.46331e+02	6.35000e+02	3.06166e+00	1.60000e+02
637	1.50883e+02	6.37000e+02	3.06089e+00	1.64000e+02
639	1.55431e+02	6.39000e+02	3.05981e+00	1.68000e+02
641	1.59956e+02	6.41000e+02	3.05827e+00	1.72000e+02
643	1.64437e+02	6.43000e+02	3.05656e+00	1.76000e+02
645	1.68910e+02	6.45000e+02	3.05441e+00	1.80000e+02
647	1.73347e+02	6.47000e+02	3.05210e+00	1.84000e+02
649	1.77756e+02	6.49000e+02	3.04921e+00	1.88000e+02
651	1.82149e+02	6.51000e+02	3.04600e+00	1.92000e+02
653	1.86528e+02	6.53000e+02	3.04177e+00	1.96000e+02
655	1.90873e+02	6.55000e+02	3.03706e+00	2.00000e+02
657	1.95204e+02	6.57000e+02	3.03085e+00	2.04000e+02
659	1.99526e+02	6.59000e+02	3.02419e+00	2.08000e+02
661	2.03824e+02	6.61000e+02	3.01593e+00	2.12000e+02
663	2.08118e+02	6.63000e+02	3.00747e+00	2.16000e+02
665	2.12394e+02	6.65000e+02	2.99800e+00	2.20000e+02
667	2.16667e+02	6.67000e+02	2.98883e+00	2.24000e+02
669	2.20919e+02	6.69000e+02	2.97987e+00	2.28000e+02
671	2.25158e+02	6.71000e+02	2.97154e+00	2.32000e+02
673	2.29406e+02	6.73000e+02	2.96452e+00	2.36000e+02
675	2.33609e+02	6.75000e+02	2.95800e+00	2.40000e+02
677	2.37814e+02	6.77000e+02	2.95301e+00	2.44000e+02
679	2.41998e+02	6.79000e+02	2.94819e+00	2.48000e+02
681	2.46178e+02	6.81000e+02	2.94441e+00	2.52000e+02
683	2.50359e+02	6.83000e+02	2.94058e+00	2.56000e+02
685	2.54506e+02	6.85000e+02	2.93721e+00	2.60000e+02
687	2.58650e+02	6.87000e+02	2.93379e+00	2.64000e+02
689	2.62768e+02	6.89000e+02	2.93047e+00	2.68000e+02
691	2.66923e+02	6.91000e+02	2.92709e+00	2.72000e+02
693	2.71043e+02	6.93000e+02	2.92369e+00	2.76000e+02
695	2.75155e+02	6.95000e+02	2.92027e+00	2.80000e+02
697	2.79257e+02	6.97000e+02	2.91674e+00	2.84000e+02
699	2.83378e+02	6.99000e+02	2.91309e+00	2.88000e+02
701	2.87494e+02	7.01000e+02	2.90903e+00	2.92000e+02
703	2.91596e+02	7.03000e+02	2.90466e+00	2.96000e+02
705	2.95694e+02	7.05000e+02	2.89938e+00	3.00000e+02
707	2.99809e+02	7.07000e+02	2.89358e+00	3.04000e+02
709	3.03903e+02	7.09000e+02	2.88624e+00	3.08000e+02
711	3.08000e+02	7.11000e+02	2.87826e+00	3.12000e+02
713	3.12105e+02	7.13000e+02	2.86816e+00	3.16000e+02
715	3.16227e+02	7.15000e+02	2.85741e+00	3.20000e+02
717	3.20355e+02	7.17000e+02	2.84434e+00	3.24000e+02
719	3.24469e+02	7.19000e+02	2.83078e+00	3.28000e+02
721	3.28567e+02	7.21000e+02	2.81498e+00	3.32000e+02
723	3.32639e+02	7.23000e+02	2.79856e+00	3.36000e+02
725	3.36717e+02	7.25000e+02	2.77955e+00	3.40000e+02
727	3.40750e+02	7.27000e+02	2.75944e+00	3.44000e+02
729	3.44834e+02	7.29000e+02	2.73644e+00	3.48000e+02
731	3.48877e+02	7.31000e+02	2.71093e+00	3.52000e+02
733	3.52908e+02	7.33000e+02	2.68008e+00	3.56000e+02
735	3.56953e+02	7.35000e+02	2.64426e+00	3.60000e+02
737	3.61011e+02	7.37000e+02	2.59927e+00	3.64000e+02
739	3.64999e+02	7.39000e+02	2.54800e+00	3.68000e+02
741	3.68989e+02	7.41000e+02	2.48664e+00	3.72000e+02
743	3.73029e+02	7.43000e+02	2.41529e+00	3.76000e+02
745	3.77010e+02	7.45000e+02	2.33392e+00	3.80000e+02
747	3.80968e+02	7.47000e+02	2.24277e+00	3.84000e+02
749	3.85045e+02	7.49000e+02	2.14102e+00	3.88000e+02
751	3.89022e+02	7.51000e+02	2.03234e+00	3.92000e+02
753	3.93015e+02	7.53000e+02	1.91354e+00	3.96000e+02
755	3.96895e+02	7.55000e+02	1.78853e+00	4.00000e+02
757	4.00777e+02	7.57000e+02	1.65766e+00	4.04000e+02
759	4.04767e+02	7.59000e+02	1.52395e+00	4.08000e+02
761	4.08665e+02	7.61000e+02	1.38404e+00	4.12000e+02
763	4.12672e+02	7.63000e+02	1.24261e+00	4.16000e+02
765	4.16651e+02	7.65000e+02	1.09932e+00	4.20000e+02
767	4.20667e+02	7.67000e+02	9.57412e-01	4.24000e+02
769	4.24734e+02	7.69000e+02	8.15785e-01	4.28000e+02
771	4.28792e+02	7.71000e+02	6.79347e-01	4.32000e+02
773	4.32986e+02	7.73000e+02	5.52617e-01	4.36000e+02
775	4.37131e+02	7.75000e+02	4.37699e-01	4.40000e+02
777	4.41155e+02	7.77000e+02	3.39707e-01	4.44000e+02
779	4.45241e+02	7.79000e+02	2.54926e-01	4.48000e+02
781	4.49347e+02	7.81000e+02	1.88776e-01	4.52000e+02
783	4.53454e+02	7.83000e+02	1.35157e-01	4.56000e+02
785	4.57392e+02	7.85000e+02	9.84555e-02	4.60000e+02
787	4.61356e+02	7.87000e+02	6.93187e-02	4.64000e+02
789	4.65250e+02	7.89000e+02	5.06359e-02	4.68000e+02
791	4.69126e+02	7.91000e+02	3.78678e-02	4.72000e+02
793	4.73058e+02	7.93000e+02	3.08884e-02	4.76000e+02
795	4.76705e+02	7.95000e+02	2.45808e-02	4.80000e+02
797	4.80529e+02	7.97000e+02	2.16348e-02	4.84000e+02
799	4.84556e+02	7.99000e+02	1.87584e-02	4.88000e+02
801	4.88546e+02	8.01000e+02	1.77367e-02	4.92000e+02
803	4.92407e+02	8.03000e+02	1.66015e-02	4.96000e+02
805	4.96243e+02	8.05000e+02	1.62637e-02	5.00000e+02
807	5.00176e+02	8.07000e+02	1.58455e-02	5.04000e+02
809	5.04060e+02	8.09000e+02	1.57400e-02	5.08000e+02
811	5.07851e+02	8.11000e+02	1.56148e-02	5.12000e+02
813	5.11929e+02	8.13000e+02	1.56120e-02	5.16000e+02
815	5.15994e+02	8.15000e+02	1.55824e-02	5.20000e+02
817	5.19857e+02	8.17000e+02	1.55704e-02	5.24000e+02
819	5.23655e+02	8.19000e+02	1.55338e-02	5.28000e+02
821	5.27751e+02	8.21000e+02	1.54761e-02	5.32000e+02
823	5.31074e+02	8.23000e+02	1.54287e-02	5.36000e+02
825	5.34607e+02	8.25000e+02	1.53856e-02	5.40000e+02
827	5.38400e+02	8.27000e+02	1.53463e-02	5.44000e+02
829	5.42257e+02	8.29000e+02	1.53225e-02	5.48000e+02
831	5.46129e+02	8.31000e+02	1.53044e-02	5.52000e+02
833	5.49992e+02	8.33000e+02	1.52979e-02	5.56000e+02
835	5.53848e+02	8.35000e+02	1.52906e-02	5.60000e+02
837	5.57776e+02	8.37000e+02	1.52835e-02	5.64000e+02
839	5.61811e+02	8.39000e+02	1.52655e-02	5.68000e+02
841	5.66014e+02	8.41000e+02	1.52294e-02	5.72000e+02
843	5.69934e+02	8.43000e+02	1.51915e-02	5.76000e+02
845	5.74348e+02	8.45000e+02	1.51570e-02	5.80000e+02
847	5.78332e+02	8.47000e+02	1.51400e-02	5.84000e+02
849	5.82269e+02	8.49000e+02	1.51421e-02	5.88000e+02
851	5.86048e+02	8.51000e+02	1.51381e-02	5.92000e+02
853	5.89939e+02	8.53000e+02	1.51508e-02	5.96000e+02
855	5.93934e+02	8.55000e+02	1.51758e-02	6.00000e+02
857	5.97860e+02	8.57000e+02	1.52071e-02	6.04000e+02
859	6.01712e+02	8.59000e+02	1.52082e-02	6.08000e+02
861	6.05554e+02	8.61000e+02	1.51932e-02	6.12000e+02
863	6.09526e+02	8.63000e+02	1.51909e-02	6.16000e+02
865	6.13360e+02	8.65000e+02	1.51742e-02	6.20000e+02
867	6.17230e+02	8.67000e+02	1.51357e-02	6.24000e+02
869	6.21048e+02	8.69000e+02	1.50736e-02	6.28000e+02
871	6.25396e+02	8.71000e+02	1.50280e-02	6.32000e+02
873	6.29281e+02	8.73000e+02	1.49803e-02	6.36000e+02
875	6.33131e+02	8.75000e+02	1.49267e-02	6.40000e+02
877	6.36919e+02	8.77000e+02	1.48727e-02	6.44000e+02
879	6.40838e+02	8.79000e+02	1.48327e-02	6.48000e+02
881	6.42320e+02	8.81000e+02	1.48510e-02	6.52000e+02
883	6.45017e+02	8.83000e+02	1.49023e-02	6.56000e+02
885	6.48111e+02	8.85000e+02	1.50261e-02	6.60000e+02
887	6.50666e+02	8.87000e+02	1.50697e-02	6.64000e+02
889	6.52851e+02	8.89000e+02	1.50494e-02	6.68000e+02
891	6.55158e+02	8.91000e+02	1.49682e-02	6.72000e+02
893	6.57387e+02	8.93000e+02	1.48028e-02	6.76000e+02
895	6.59529e+02	8.95000e+02	1.46858e-02	6.80000e+02
897	6.61388e+02	8.97000e+02	1.45923e-02	6.84000e+02
899	6.63182e+02	8.99000e+02	1.45219e-02	6.88000e+02
901	6.65100e+02	9.01000e+02	1.44936e-02	6.92000e+02
903	6.67201e+02	9.03000e+02	1.44752e-02	6.96000e+02
905	6.68456e+02	9.05000e+02	1.44906e-02	7.00000e+02