File: Experiments/TUBS/tga_nonisotherm/tga_dynamic_n2_dyn45_piece_3mg_r2.txt
index	ts	t	weight	tr
[#]	[°C]	[s]	[mg]	[°C]
657	1.32361e+02	6.57000e+02	2.95353e+00	1.32752e+02
661	1.35403e+02	6.61000e+02	2.95346e+00	1.35752e+02
665	1.38474e+02	6.65000e+02	2.95341e+00	1.38752e+02
669	1.41525e+02	6.69000e+02	2.95337e+00	1.41752e+02
673	1.44612e+02	6.73000e+02	2.95332e+00	1.44752e+02
677	1.47661e+02	6.77000e+02	2.95323e+00	1.47752e+02
681	1.50714e+02	6.81000e+02	2.95312e+00	1.50752e+02
685	1.53768e+02	6.85000e+02	2.95301e+00	1.53753e+02
689	1.56808e+02	6.89000e+02	2.95295e+00	1.56753e+02
693	1.59847e+02	6.93000e+02	2.95279e+00	1.59753e+02
697	1.62911e+02	6.97000e+02	2.95243e+00	1.62753e+02
701	1.65938e+02	7.01000e+02	2.95200e+00	1.65753e+02
705	1.68986e+02	7.05000e+02	2.95169e+00	1.68753e+02
709	1.72017e+02	7.09000e+02	2.95154e+00	1.71753e+02
713	1.75067e+02	7.13000e+02	2.95137e+00	1.74753e+02
717	1.78114e+02	7.17000e+02	2.95112e+00	1.77754e+02
721	1.81152e+02	7.21000e+02	2.95087e+00	1.80754e+02
725	1.84208e+02	7.25000e+02	2.95061e+00	1.83754e+02
729	1.87253e+02	7.29000e+02	2.95022e+00	1.86754e+02
733	1.90293e+02	7.33000e+02	2.94963e+00	1.89754e+02
737	1.93333e+02	7.37000e+02	2.94887e+00	1.92754e+02
741	1.96375e+02	7.41000e+02	2.94802e+00	1.95754e+02
745	1.99421e+02	7.45000e+02	2.94716e+00	1.98754e+02
749	2.02472e+02	7.49000e+02	2.94620e+00	2.01755e+02
753	2.05509e+02	7.53000e+02	2.94485e+00	2.04755e+02
757	2.08559e+02	7.57000e+02	2.94301e+00	2.07755e+02
761	2.11596e+02	7.61000e+02	2.94100e+00	2.10755e+02
765	2.14640e+02	7.65000e+02	2.93908e+00	2.13755e+02
769	2.17697e+02	7.69000e+02	2.93738e+00	2.16755e+02
773	2.20736e+02	7.73000e+02	2.93568e+00	2.19755e+02
777	2.23763e+02	7.77000e+02	2.93378e+00	2.22755e+02
781	2.26762e+02	7.81000e+02	2.93174e+00	2.25756e+02
785	2.29848e+02	7.85000e+02	2.92966e+00	2.28756e+02
789	2.32931e+02	7.89000e+02	2.92758e+00	2.31756e+02
793	2.35991e+02	7.93000e+02	2.92545e+00	2.34756e+02
797	2.39023e+02	7.97000e+02	2.92326e+00	2.37756e+02
801	2.42078e+02	8.01000e+02	2.92104e+00	2.40756e+02
805	2.45121e+02	8.05000e+02	2.91880e+00	2.43756e+02
809	2.48188e+02	8.09000e+02	2.91656e+00	2.46756e+02
813	2.51228e+02	8.13000e+02	2.91424e+00	2.49757e+02
817	2.54270e+02	8.17000e+02	2.91168e+00	2.52757e+02
821	2.57370e+02	8.21000e+02	2.90902e+00	2.55757e+02
825	2.60430e+02	8.25000e+02	2.90643e+00	2.58757e+02
829	2.63476e+02	8.29000e+02	2.90385e+00	2.61757e+02
833	2.66509e+02	8.33000e+02	2.90108e+00	2.64757e+02
837	2.69540e+02	8.37000e+02	2.89822e+00	2.67757e+02
841	2.72614e+02	8.41000e+02	2.89538e+00	2.70757e+02
845	2.75655e+02	8.45000e+02	2.89248e+00	2.73758e+02
849	2.78727e+02	8.49000e+02	2.88936e+00	2.76758e+02
853	2.81774e+02	8.53000e+02	2.88622e+00	2.79758e+02
857	2.84819e+02	8.57000e+02	2.88304e+00	2.82758e+02
861	2.87829e+02	8.61000e+02	2.87945e+00	2.85758e+02
865	2.90883e+02	8.65000e+02	2.87570e+00	2.88758e+02
869	2.93939e+02	8.69000e+02	2.87196e+00	2.91758e+02
873	2.97002e+02	8.73000e+02	2.86787e+00	2.94758e+02
877	3.00041e+02	8.77000e+02	2.86344e+00	2.97759e+02
881	3.03108e+02	8.81000e+02	2.85890e+00	3.00759e+02
885	3.06204e+02	8.85000e+02	2.85392e+00	3.03759e+02
889	3.09303e+02	8.89000e+02	2.84808e+00	3.06759e+02
893	3.12352e+02	8.93000e+02	2.84151e+00	3.09759e+02
897	3.15554e+02	8.97000e+02	2.83464e+00	3.12759e+02
901	3.18639e+02	9.01000e+02	2.82759e+00	3.15759e+02
905	3.21680e+02	9.05000e+02	2.82024e+00	3.18759e+02
909	3.24783e+02	9.09000e+02	2.81245e+00	3.21759e+02
913	3.27886e+02	9.13000e+02	2.80409e+00	3.24760e+02
917	3.30918e+02	9.17000e+02	2.79521e+00	3.27760e+02
921	3.33963e+02	9.21000e+02	2.78585e+00	3.30760e+02
925	3.36986e+02	9.25000e+02	2.77592e+00	3.33760e+02
929	3.40078e+02	9.29000e+02	2.76539e+00	3.36760e+02
933	3.43121e+02	9.33000e+02	2.75405e+00	3.39760e+02
937	3.46121e+02	9.37000e+02	2.74113e+00	3.42760e+02
941	3.49126e+02	9.41000e+02	2.72594e+00	3.45760e+02
945	3.52131e+02	9.45000e+02	2.70784e+00	3.48761e+02
949	3.55144e+02	9.49000e+02	2.68597e+00	3.51761e+02
953	3.58127e+02	9.53000e+02	2.65896e+00	3.54761e+02
957	3.61168e+02	9.57000e+02	2.62553e+00	3.57761e+02
961	3.64144e+02	9.61000e+02	2.58404e+00	3.60761e+02
965	3.67126e+02	9.65000e+02	2.53274e+00	3.63761e+02
969	3.70204e+02	9.69000e+02	2.47009e+00	3.66761e+02
973	3.73222e+02	9.73000e+02	2.39575e+00	3.69761e+02
977	3.76206e+02	9.77000e+02	2.30933e+00	3.72762e+02
981	3.79186e+02	9.81000e+02	2.21110e+00	3.75762e+02
985	3.82059e+02	9.85000e+02	2.10261e+00	3.78762e+02
989	3.84946e+02	9.89000e+02	1.98487e+00	3.81762e+02
993	3.87883e+02	9.93000e+02	1.85922e+00	3.84762e+02
997	3.90873e+02	9.97000e+02	1.72636e+00	3.87762e+02
1001	3.93827e+02	1.00100e+03	1.58784e+00	3.90762e+02
1005	3.96822e+02	1.00500e+03	1.44586e+00	3.93762e+02
1009	3.99780e+02	1.00900e+03	1.30298e+00	3.96763e+02
1013	4.02809e+02	1.01300e+03	1.16150e+00	3.99763e+02
1017	4.05768e+02	1.01700e+03	1.02237e+00	4.02763e+02
1021	4.08745e+02	1.02100e+03	8.84968e-01	4.05763e+02
1025	4.11883e+02	1.02500e+03	7.49640e-01	4.08763e+02
1029	4.14827e+02	1.02900e+03	6.19916e-01	4.11763e+02
1033	4.17874e+02	1.03300e+03	4.99713e-01	4.14763e+02
1037	4.21051e+02	1.03700e+03	3.95206e-01	4.17763e+02
1041	4.24218e+02	1.04100e+03	3.08138e-01	4.20764e+02
1045	4.27244e+02	1.04500e+03	2.39178e-01	4.23764e+02
1049	4.30331e+02	1.04900e+03	1.87378e-01	4.26764e+02
1053	4.33439e+02	1.05300e+03	1.51469e-01	4.29764e+02
1057	4.36548e+02	1.05700e+03	1.25432e-01	4.32764e+02
1061	4.39644e+02	1.06100e+03	1.07156e-01	4.35764e+02
1065	4.42657e+02	1.06500e+03	9.44582e-02	4.38764e+02
1069	4.45664e+02	1.06900e+03	8.58996e-02	4.41764e+02
1073	4.48714e+02	1.07300e+03	8.00941e-02	4.44765e+02
1077	4.51649e+02	1.07700e+03	7.58240e-02	4.47765e+02
1081	4.54643e+02	1.08100e+03	7.25497e-02	4.50765e+02
1085	4.57746e+02	1.08500e+03	7.02910e-02	4.53765e+02
1089	4.61049e+02	1.08900e+03	6.87197e-02	4.56765e+02
1093	4.64120e+02	1.09300e+03	6.74287e-02	4.59765e+02
1097	4.67075e+02	1.09700e+03	6.65130e-02	4.62765e+02
1101	4.70033e+02	1.10100e+03	6.60477e-02	4.65765e+02
1105	4.73049e+02	1.10500e+03	6.58082e-02	4.68766e+02
1109	4.76033e+02	1.10900e+03	6.57116e-02	4.71766e+02
1113	4.78975e+02	1.11300e+03	6.54512e-02	4.74766e+02
1117	4.81901e+02	1.11700e+03	6.50596e-02	4.77766e+02
1121	4.84885e+02	1.12100e+03	6.47465e-02	4.80766e+02
1125	4.87948e+02	1.12500e+03	6.47574e-02	4.83766e+02
1129	4.90934e+02	1.12900e+03	6.49032e-02	4.86766e+02
1133	4.93941e+02	1.13300e+03	6.48617e-02	4.89766e+02
1137	4.96838e+02	1.13700e+03	6.47326e-02	4.92766e+02
1141	4.99767e+02	1.14100e+03	6.47111e-02	4.95767e+02
1145	5.02706e+02	1.14500e+03	6.46897e-02	4.98767e+02
1149	5.05607e+02	1.14900e+03	6.46465e-02	5.01767e+02
1153	5.08414e+02	1.15300e+03	6.45906e-02	5.04767e+02
1157	5.11277e+02	1.15700e+03	6.45678e-02	5.07767e+02
1161	5.14266e+02	1.16100e+03	6.46137e-02	5.10767e+02
1165	5.17207e+02	1.16500e+03	6.44860e-02	5.13767e+02
1169	5.20069e+02	1.16900e+03	6.43009e-02	5.16767e+02
1173	5.22948e+02	1.17300e+03	6.42715e-02	5.19768e+02
1177	5.25829e+02	1.17700e+03	6.42386e-02	5.22768e+02
1181	5.28764e+02	1.18100e+03	6.41574e-02	5.25768e+02
1185	5.31568e+02	1.18500e+03	6.41509e-02	5.28768e+02
1189	5.34506e+02	1.18900e+03	6.41798e-02	5.31768e+02
1193	5.37538e+02	1.19300e+03	6.41851e-02	5.34768e+02
1197	5.40526e+02	1.19700e+03	6.42210e-02	5.37768e+02
1201	5.43297e+02	1.20100e+03	6.42010e-02	5.40768e+02
1205	5.46083e+02	1.20500e+03	6.41424e-02	5.43769e+02
1209	5.48911e+02	1.20900e+03	6.40884e-02	5.46769e+02
1213	5.51786e+02	1.21300e+03	6.40266e-02	5.49769e+02
1217	5.54659e+02	1.21700e+03	6.39733e-02	5.52769e+02
1221	5.57579e+02	1.22100e+03	6.39390e-02	5.55769e+02
1225	5.60427e+02	1.22500e+03	6.38836e-02	5.58769e+02
1229	5.63279e+02	1.22900e+03	6.37991e-02	5.61769e+02
1233	5.66115e+02	1.23300e+03	6.38015e-02	5.64769e+02
1237	5.68993e+02	1.23700e+03	6.38655e-02	5.67770e+02
1241	5.71878e+02	1.24100e+03	6.39180e-02	5.70770e+02
1245	5.74807e+02	1.24500e+03	6.38589e-02	5.73770e+02
1249	5.77755e+02	1.24900e+03	6.36968e-02	5.76770e+02
1253	5.80644e+02	1.25300e+03	6.36574e-02	5.79770e+02
1257	5.83557e+02	1.25700e+03	6.37489e-02	5.82770e+02
1261	5.86453e+02	1.26100e+03	6.37873e-02	5.85770e+02
1265	5.89410e+02	1.26500e+03	6.37882e-02	5.88770e+02
1269	5.92559e+02	1.26900e+03	6.37901e-02	5.91771e+02
1273	5.95729e+02	1.27300e+03	6.37995e-02	5.94771e+02
1277	5.99672e+02	1.27700e+03	6.37685e-02	5.97771e+02
1281	6.02357e+02	1.28100e+03	6.37420e-02	6.00771e+02
1285	6.05163e+02	1.28500e+03	6.37535e-02	6.03771e+02
1289	6.08128e+02	1.28900e+03	6.37746e-02	6.06771e+02
1293	6.11216e+02	1.29300e+03	6.38143e-02	6.09771e+02
1297	6.14119e+02	1.29700e+03	6.38283e-02	6.12771e+02
1301	6.17079e+02	1.30100e+03	6.38240e-02	6.15772e+02
1305	6.20099e+02	1.30500e+03	6.37958e-02	6.18772e+02
1309	6.23261e+02	1.30900e+03	6.38280e-02	6.21772e+02
1313	6.26363e+02	1.31300e+03	6.39149e-02	6.24772e+02
1317	6.29603e+02	1.31700e+03	6.37786e-02	6.27772e+02
1321	6.32584e+02	1.32100e+03	6.35709e-02	6.30772e+02
1325	6.35544e+02	1.32500e+03	6.35205e-02	6.33772e+02
1329	6.38834e+02	1.32900e+03	6.33503e-02	6.36772e+02
1333	6.41467e+02	1.33300e+03	6.30953e-02	6.39773e+02
1337	6.44387e+02	1.33700e+03	6.30755e-02	6.42773e+02
1341	6.47376e+02	1.34100e+03	6.30786e-02	6.45773e+02
1345	6.50450e+02	1.34500e+03	6.32965e-02	6.48773e+02
1349	6.53917e+02	1.34900e+03	6.35527e-02	6.51773e+02
1353	6.56727e+02	1.35300e+03	6.35386e-02	6.54773e+02
1357	6.59332e+02	1.35700e+03	6.33374e-02	6.57773e+02
1361	6.61868e+02	1.36100e+03	6.31816e-02	6.60773e+02
1365	6.64725e+02	1.36500e+03	6.31779e-02	6.63773e+02
1369	6.67675e+02	1.36900e+03	6.33538e-02	6.66774e+02
1373	6.70619e+02	1.37300e+03	6.34830e-02	6.69774e+02
1377	6.73546e+02	1.37700e+03	6.35342e-02	6.72774e+02
1381	6.76477e+02	1.38100e+03	6.35392e-02	6.75774e+02
1385	6.79388e+02	1.38500e+03	6.34256e-02	6.78774e+02
1389	6.81579e+02	1.38900e+03	6.32685e-02	6.81774e+02
1393	6.83537e+02	1.39300e+03	6.33027e-02	6.84774e+02
1397	6.85451e+02	1.39700e+03	6.34106e-02	6.87774e+02
1401	6.87137e+02	1.40100e+03	6.33990e-02	6.90775e+02
1405	6.88615e+02	1.40500e+03	6.33071e-02	6.93775e+02
1409	6.89954e+02	1.40900e+03	6.31969e-02	6.96775e+02
1413	6.91161e+02	1.41300e+03	6.30342e-02	6.99775e+02
1414	6.91435e+02	1.41400e+03	6.30017e-02	7.00000e+02