File: Experiments/TUBS/tga_nonisotherm/tga_dynamic_n2_dyn10_powder_1mg_r2.txt
index	ts	t	weight	tr
[#]	[°C]	[s]	[mg]	[°C]
843	1.31049e+02	8.43000e+02	1.04976e+00	1.30500e+02
862	1.34268e+02	8.62000e+02	1.04965e+00	1.33667e+02
881	1.37479e+02	8.81000e+02	1.04917e+00	1.36833e+02
900	1.40696e+02	9.00000e+02	1.04912e+00	1.40000e+02
919	1.43912e+02	9.19000e+02	1.04855e+00	1.43167e+02
938	1.47143e+02	9.38000e+02	1.04841e+00	1.46333e+02
957	1.50364e+02	9.57000e+02	1.04756e+00	1.49500e+02
976	1.53582e+02	9.76000e+02	1.04686e+00	1.52667e+02
995	1.56804e+02	9.95000e+02	1.04625e+00	1.55833e+02
1014	1.60033e+02	1.01400e+03	1.04535e+00	1.59000e+02
1033	1.63264e+02	1.03300e+03	1.04461e+00	1.62167e+02
1052	1.66479e+02	1.05200e+03	1.04350e+00	1.65333e+02
1071	1.69693e+02	1.07100e+03	1.04187e+00	1.68500e+02
1090	1.72916e+02	1.09000e+03	1.03995e+00	1.71667e+02
1109	1.76120e+02	1.10900e+03	1.03740e+00	1.74833e+02
1128	1.79350e+02	1.12800e+03	1.03430e+00	1.78000e+02
1147	1.82569e+02	1.14700e+03	1.03042e+00	1.81167e+02
1166	1.85776e+02	1.16600e+03	1.02615e+00	1.84333e+02
1185	1.88992e+02	1.18500e+03	1.02266e+00	1.87500e+02
1204	1.92187e+02	1.20400e+03	1.01960e+00	1.90667e+02
1223	1.95384e+02	1.22300e+03	1.01700e+00	1.93833e+02
1242	1.98587e+02	1.24200e+03	1.01522e+00	1.97000e+02
1261	2.01786e+02	1.26100e+03	1.01379e+00	2.00167e+02
1280	2.04990e+02	1.28000e+03	1.01292e+00	2.03333e+02
1299	2.08201e+02	1.29900e+03	1.01231e+00	2.06500e+02
1318	2.11383e+02	1.31800e+03	1.01138e+00	2.09667e+02
1337	2.14553e+02	1.33700e+03	1.01082e+00	2.12833e+02
1356	2.17722e+02	1.35600e+03	1.01021e+00	2.16000e+02
1375	2.20873e+02	1.37500e+03	1.00927e+00	2.19167e+02
1394	2.24012e+02	1.39400e+03	1.00878e+00	2.22333e+02
1413	2.27184e+02	1.41300e+03	1.00796e+00	2.25500e+02
1432	2.30343e+02	1.43200e+03	1.00752e+00	2.28667e+02
1451	2.33499e+02	1.45100e+03	1.00697e+00	2.31833e+02
1470	2.36665e+02	1.47000e+03	1.00670e+00	2.35000e+02
1489	2.39802e+02	1.48900e+03	1.00614e+00	2.38167e+02
1508	2.42955e+02	1.50800e+03	1.00588e+00	2.41333e+02
1527	2.46144e+02	1.52700e+03	1.00577e+00	2.44500e+02
1546	2.49318e+02	1.54600e+03	1.00519e+00	2.47667e+02
1565	2.52485e+02	1.56500e+03	1.00478e+00	2.50833e+02
1584	2.55661e+02	1.58400e+03	1.00412e+00	2.54000e+02
1603	2.58854e+02	1.60300e+03	1.00388e+00	2.57167e+02
1622	2.62029e+02	1.62200e+03	1.00314e+00	2.60333e+02
1641	2.65209e+02	1.64100e+03	1.00234e+00	2.63500e+02
1660	2.68435e+02	1.66000e+03	1.00164e+00	2.66667e+02
1679	2.71617e+02	1.67900e+03	1.00011e+00	2.69833e+02
1698	2.74786e+02	1.69800e+03	9.99206e-01	2.73000e+02
1717	2.77975e+02	1.71700e+03	9.97230e-01	2.76167e+02
1736	2.81149e+02	1.73600e+03	9.95392e-01	2.79333e+02
1755	2.84280e+02	1.75500e+03	9.92817e-01	2.82500e+02
1774	2.87353e+02	1.77400e+03	9.89598e-01	2.85667e+02
1793	2.90375e+02	1.79300e+03	9.85743e-01	2.88833e+02
1812	2.93425e+02	1.81200e+03	9.81208e-01	2.92000e+02
1831	2.96513e+02	1.83100e+03	9.75848e-01	2.95167e+02
1850	2.99608e+02	1.85000e+03	9.70077e-01	2.98333e+02
1869	3.02694e+02	1.86900e+03	9.63676e-01	3.01500e+02
1888	3.05855e+02	1.88800e+03	9.57171e-01	3.04667e+02
1907	3.08995e+02	1.90700e+03	9.51266e-01	3.07833e+02
1926	3.12161e+02	1.92600e+03	9.45477e-01	3.11000e+02
1945	3.15334e+02	1.94500e+03	9.39368e-01	3.14167e+02
1964	3.18496e+02	1.96400e+03	9.32549e-01	3.17333e+02
1983	3.21651e+02	1.98300e+03	9.24372e-01	3.20500e+02
2002	3.24806e+02	2.00200e+03	9.14566e-01	3.23667e+02
2021	3.27969e+02	2.02100e+03	9.02732e-01	3.26833e+02
2040	3.31139e+02	2.04000e+03	8.87917e-01	3.30000e+02
2059	3.34293e+02	2.05900e+03	8.69498e-01	3.33167e+02
2078	3.37448e+02	2.07800e+03	8.48009e-01	3.36333e+02
2097	3.40702e+02	2.09700e+03	8.21424e-01	3.39500e+02
2116	3.43928e+02	2.11600e+03	7.89773e-01	3.42667e+02
2135	3.47211e+02	2.13500e+03	7.53425e-01	3.45833e+02
2154	3.50399e+02	2.15400e+03	7.12279e-01	3.49000e+02
2173	3.53601e+02	2.17300e+03	6.66385e-01	3.52167e+02
2192	3.56791e+02	2.19200e+03	6.16945e-01	3.55333e+02
2211	3.59940e+02	2.21100e+03	5.63669e-01	3.58500e+02
2230	3.63059e+02	2.23000e+03	5.08196e-01	3.61667e+02
2249	3.66209e+02	2.24900e+03	4.52283e-01	3.64833e+02
2268	3.69364e+02	2.26800e+03	3.96451e-01	3.68000e+02
2287	3.72523e+02	2.28700e+03	3.39755e-01	3.71167e+02
2306	3.75685e+02	2.30600e+03	2.86474e-01	3.74333e+02
2325	3.78828e+02	2.32500e+03	2.37831e-01	3.77500e+02
2344	3.81983e+02	2.34400e+03	1.93964e-01	3.80667e+02
2363	3.85166e+02	2.36300e+03	1.56352e-01	3.83833e+02
2382	3.88410e+02	2.38200e+03	1.24716e-01	3.87000e+02
2401	3.91720e+02	2.40100e+03	9.82773e-02	3.90167e+02
2420	3.94920e+02	2.42000e+03	7.66798e-02	3.93333e+02
2439	3.98122e+02	2.43900e+03	6.02067e-02	3.96500e+02
2458	4.01292e+02	2.45800e+03	4.76501e-02	3.99667e+02
2477	4.04470e+02	2.47700e+03	3.83742e-02	4.02833e+02
2496	4.07653e+02	2.49600e+03	3.19081e-02	4.06000e+02
2515	4.10801e+02	2.51500e+03	2.71105e-02	4.09167e+02
2534	4.13930e+02	2.53400e+03	2.43265e-02	4.12333e+02
2553	4.17061e+02	2.55300e+03	2.20042e-02	4.15500e+02
2572	4.20200e+02	2.57200e+03	2.05064e-02	4.18667e+02
2591	4.23308e+02	2.59100e+03	1.93612e-02	4.21833e+02
2610	4.26424e+02	2.61000e+03	1.83351e-02	4.25000e+02
2629	4.29501e+02	2.62900e+03	1.81867e-02	4.28167e+02
2648	4.32516e+02	2.64800e+03	1.76305e-02	4.31333e+02
2667	4.35604e+02	2.66700e+03	1.72338e-02	4.34500e+02
2686	4.38715e+02	2.68600e+03	1.69806e-02	4.37667e+02
2705	4.41859e+02	2.70500e+03	1.68935e-02	4.40833e+02
2724	4.44971e+02	2.72400e+03	1.69016e-02	4.44000e+02
2743	4.48105e+02	2.74300e+03	1.67887e-02	4.47167e+02
2762	4.51212e+02	2.76200e+03	1.67376e-02	4.50333e+02
2781	4.54358e+02	2.78100e+03	1.65436e-02	4.53500e+02
2800	4.57516e+02	2.80000e+03	1.65234e-02	4.56667e+02
2819	4.60668e+02	2.81900e+03	1.64282e-02	4.59833e+02
2838	4.63826e+02	2.83800e+03	1.63140e-02	4.63000e+02
2857	4.66971e+02	2.85700e+03	1.63106e-02	4.66167e+02
2876	4.70098e+02	2.87600e+03	1.63463e-02	4.69333e+02
2895	4.73240e+02	2.89500e+03	1.61733e-02	4.72500e+02
2914	4.76382e+02	2.91400e+03	1.62432e-02	4.75667e+02
2933	4.79521e+02	2.93300e+03	1.62549e-02	4.78833e+02
2952	4.82657e+02	2.95200e+03	1.62803e-02	4.82000e+02
2971	4.85817e+02	2.97100e+03	1.62574e-02	4.85167e+02
2990	4.88953e+02	2.99000e+03	1.60251e-02	4.88333e+02
3009	4.92091e+02	3.00900e+03	1.63243e-02	4.91500e+02
3028	4.95248e+02	3.02800e+03	1.63559e-02	4.94667e+02
3047	4.98417e+02	3.04700e+03	1.63841e-02	4.97833e+02
3066	5.01573e+02	3.06600e+03	1.63775e-02	5.01000e+02
3085	5.04739e+02	3.08500e+03	1.62333e-02	5.04167e+02
3104	5.07937e+02	3.10400e+03	1.63263e-02	5.07333e+02
3123	5.11126e+02	3.12300e+03	1.63285e-02	5.10500e+02
3142	5.14283e+02	3.14200e+03	1.64109e-02	5.13667e+02
3161	5.17449e+02	3.16100e+03	1.65083e-02	5.16833e+02
3180	5.20617e+02	3.18000e+03	1.65408e-02	5.20000e+02
3199	5.23810e+02	3.19900e+03	1.62737e-02	5.23167e+02
3218	5.26999e+02	3.21800e+03	1.62493e-02	5.26333e+02
3237	5.30163e+02	3.23700e+03	1.61978e-02	5.29500e+02
3256	5.33314e+02	3.25600e+03	1.64132e-02	5.32667e+02
3275	5.36528e+02	3.27500e+03	1.63077e-02	5.35833e+02
3294	5.39788e+02	3.29400e+03	1.62529e-02	5.39000e+02
3313	5.42994e+02	3.31300e+03	1.62522e-02	5.42167e+02
3332	5.46205e+02	3.33200e+03	1.65077e-02	5.45333e+02
3351	5.49368e+02	3.35100e+03	1.61269e-02	5.48500e+02
3370	5.52603e+02	3.37000e+03	1.62884e-02	5.51667e+02
3389	5.55846e+02	3.38900e+03	1.63879e-02	5.54833e+02
3408	5.59052e+02	3.40800e+03	1.60904e-02	5.58000e+02
3427	5.62288e+02	3.42700e+03	1.61370e-02	5.61167e+02
3446	5.65505e+02	3.44600e+03	1.61480e-02	5.64333e+02
3465	5.68702e+02	3.46500e+03	1.60987e-02	5.67500e+02
3484	5.71895e+02	3.48400e+03	1.59694e-02	5.70667e+02
3503	5.75039e+02	3.50300e+03	1.61032e-02	5.73833e+02
3522	5.78186e+02	3.52200e+03	1.57440e-02	5.77000e+02
3541	5.81346e+02	3.54100e+03	1.60306e-02	5.80167e+02
3560	5.84475e+02	3.56000e+03	1.61002e-02	5.83333e+02
3579	5.87591e+02	3.57900e+03	1.59191e-02	5.86500e+02
3598	5.90750e+02	3.59800e+03	1.57188e-02	5.89667e+02
3617	5.93886e+02	3.61700e+03	1.58880e-02	5.92833e+02
3636	5.97017e+02	3.63600e+03	1.60595e-02	5.96000e+02
3655	6.00177e+02	3.65500e+03	1.59374e-02	5.99167e+02
3674	6.03347e+02	3.67400e+03	1.58345e-02	6.02333e+02
3693	6.06493e+02	3.69300e+03	1.58760e-02	6.05500e+02
3712	6.09626e+02	3.71200e+03	1.58930e-02	6.08667e+02
3731	6.12772e+02	3.73100e+03	1.59254e-02	6.11833e+02
3750	6.15910e+02	3.75000e+03	1.57361e-02	6.15000e+02
3769	6.19055e+02	3.76900e+03	1.57791e-02	6.18167e+02
3788	6.22227e+02	3.78800e+03	1.58201e-02	6.21333e+02
3807	6.25376e+02	3.80700e+03	1.58091e-02	6.24500e+02
3826	6.28551e+02	3.82600e+03	1.58003e-02	6.27667e+02
3845	6.31706e+02	3.84500e+03	1.59724e-02	6.30833e+02
3864	6.34863e+02	3.86400e+03	1.59085e-02	6.34000e+02
3883	6.38092e+02	3.88300e+03	1.58295e-02	6.37167e+02
3902	6.41249e+02	3.90200e+03	1.58241e-02	6.40333e+02
3921	6.44400e+02	3.92100e+03	1.59061e-02	6.43500e+02
3940	6.47505e+02	3.94000e+03	1.56596e-02	6.46667e+02
3959	6.50633e+02	3.95900e+03	1.58013e-02	6.49833e+02
3978	6.53818e+02	3.97800e+03	1.56918e-02	6.53000e+02
3997	6.56971e+02	3.99700e+03	1.59339e-02	6.56167e+02
4016	6.60115e+02	4.01600e+03	1.57575e-02	6.59333e+02
4035	6.63266e+02	4.03500e+03	1.58414e-02	6.62500e+02
4054	6.66389e+02	4.05400e+03	1.56537e-02	6.65667e+02
4073	6.69479e+02	4.07300e+03	1.57127e-02	6.68833e+02
4092	6.72568e+02	4.09200e+03	1.59502e-02	6.72000e+02
4111	6.75676e+02	4.11100e+03	1.60337e-02	6.75167e+02
4130	6.78816e+02	4.13000e+03	1.56407e-02	6.78333e+02
4149	6.81930e+02	4.14900e+03	1.54766e-02	6.81500e+02
4168	6.85071e+02	4.16800e+03	1.56441e-02	6.84667e+02
4187	6.88224e+02	4.18700e+03	1.56109e-02	6.87833e+02
4206	6.91334e+02	4.20600e+03	1.59544e-02	6.91000e+02
4225	6.94465e+02	4.22500e+03	1.58895e-02	6.94167e+02
4244	6.97039e+02	4.24400e+03	1.58142e-02	6.97333e+02
4260	6.98415e+02	4.26000e+03	1.57444e-02	7.00000e+02