File: Experiments/TUBS/tga_nonisotherm/tga_dynamic_n2_dyn30_powder_3mg_r2.txt
index	ts	t	weight	tr
[#]	[°C]	[s]	[mg]	[°C]
683	1.31340e+02	6.83000e+02	2.99702e+00	1.31500e+02
689	1.34348e+02	6.89000e+02	2.99685e+00	1.34500e+02
695	1.37365e+02	6.95000e+02	2.99653e+00	1.37500e+02
701	1.40385e+02	7.01000e+02	2.99596e+00	1.40500e+02
707	1.43375e+02	7.07000e+02	2.99534e+00	1.43500e+02
713	1.46387e+02	7.13000e+02	2.99450e+00	1.46500e+02
719	1.49393e+02	7.19000e+02	2.99345e+00	1.49500e+02
725	1.52412e+02	7.25000e+02	2.99224e+00	1.52500e+02
731	1.55440e+02	7.31000e+02	2.99098e+00	1.55500e+02
737	1.58469e+02	7.37000e+02	2.98954e+00	1.58500e+02
743	1.61501e+02	7.43000e+02	2.98806e+00	1.61500e+02
749	1.64543e+02	7.49000e+02	2.98649e+00	1.64500e+02
755	1.67575e+02	7.55000e+02	2.98468e+00	1.67500e+02
761	1.70610e+02	7.61000e+02	2.98248e+00	1.70500e+02
767	1.73631e+02	7.67000e+02	2.97990e+00	1.73500e+02
773	1.76675e+02	7.73000e+02	2.97683e+00	1.76500e+02
779	1.79695e+02	7.79000e+02	2.97304e+00	1.79500e+02
785	1.82706e+02	7.85000e+02	2.96815e+00	1.82500e+02
791	1.85717e+02	7.91000e+02	2.96225e+00	1.85500e+02
797	1.88740e+02	7.97000e+02	2.95472e+00	1.88500e+02
803	1.91746e+02	8.03000e+02	2.94625e+00	1.91500e+02
809	1.94790e+02	8.09000e+02	2.93726e+00	1.94500e+02
815	1.97859e+02	8.15000e+02	2.92806e+00	1.97500e+02
821	2.00966e+02	8.21000e+02	2.91953e+00	2.00500e+02
827	2.04110e+02	8.27000e+02	2.91193e+00	2.03500e+02
833	2.07242e+02	8.33000e+02	2.90573e+00	2.06500e+02
839	2.10385e+02	8.39000e+02	2.90067e+00	2.09500e+02
845	2.13480e+02	8.45000e+02	2.89688e+00	2.12500e+02
851	2.16544e+02	8.51000e+02	2.89390e+00	2.15500e+02
857	2.19624e+02	8.57000e+02	2.89171e+00	2.18500e+02
863	2.22681e+02	8.63000e+02	2.88967e+00	2.21500e+02
869	2.25757e+02	8.69000e+02	2.88760e+00	2.24500e+02
875	2.28869e+02	8.75000e+02	2.88545e+00	2.27500e+02
881	2.31971e+02	8.81000e+02	2.88316e+00	2.30500e+02
887	2.35083e+02	8.87000e+02	2.88083e+00	2.33500e+02
893	2.38231e+02	8.93000e+02	2.87845e+00	2.36500e+02
899	2.41329e+02	8.99000e+02	2.87599e+00	2.39500e+02
905	2.44437e+02	9.05000e+02	2.87381e+00	2.42500e+02
911	2.47477e+02	9.11000e+02	2.87182e+00	2.45500e+02
917	2.50505e+02	9.17000e+02	2.86997e+00	2.48500e+02
923	2.53526e+02	9.23000e+02	2.86837e+00	2.51500e+02
929	2.56492e+02	9.29000e+02	2.86678e+00	2.54500e+02
935	2.59541e+02	9.35000e+02	2.86528e+00	2.57500e+02
941	2.62582e+02	9.41000e+02	2.86381e+00	2.60500e+02
947	2.65627e+02	9.47000e+02	2.86225e+00	2.63500e+02
953	2.68680e+02	9.53000e+02	2.86095e+00	2.66500e+02
959	2.71727e+02	9.59000e+02	2.85947e+00	2.69500e+02
965	2.74764e+02	9.65000e+02	2.85764e+00	2.72500e+02
971	2.77772e+02	9.71000e+02	2.85549e+00	2.75500e+02
977	2.80766e+02	9.77000e+02	2.85292e+00	2.78500e+02
983	2.83766e+02	9.83000e+02	2.84990e+00	2.81500e+02
989	2.86821e+02	9.89000e+02	2.84633e+00	2.84500e+02
995	2.89835e+02	9.95000e+02	2.84213e+00	2.87500e+02
1001	2.92826e+02	1.00100e+03	2.83699e+00	2.90500e+02
1007	2.95820e+02	1.00700e+03	2.83062e+00	2.93500e+02
1013	2.98781e+02	1.01300e+03	2.82287e+00	2.96500e+02
1019	3.01743e+02	1.01900e+03	2.81408e+00	2.99500e+02
1025	3.04709e+02	1.02500e+03	2.80400e+00	3.02500e+02
1031	3.07694e+02	1.03100e+03	2.79284e+00	3.05500e+02
1037	3.10692e+02	1.03700e+03	2.78063e+00	3.08500e+02
1043	3.13655e+02	1.04300e+03	2.76750e+00	3.11500e+02
1049	3.16487e+02	1.04900e+03	2.75316e+00	3.14500e+02
1055	3.19389e+02	1.05500e+03	2.73815e+00	3.17500e+02
1061	3.22351e+02	1.06100e+03	2.72299e+00	3.20500e+02
1067	3.25342e+02	1.06700e+03	2.70801e+00	3.23500e+02
1073	3.28342e+02	1.07300e+03	2.69251e+00	3.26500e+02
1079	3.31320e+02	1.07900e+03	2.67535e+00	3.29500e+02
1085	3.34323e+02	1.08500e+03	2.65527e+00	3.32500e+02
1091	3.37324e+02	1.09100e+03	2.63156e+00	3.35500e+02
1097	3.40290e+02	1.09700e+03	2.60277e+00	3.38500e+02
1103	3.43275e+02	1.10300e+03	2.56837e+00	3.41500e+02
1109	3.46268e+02	1.10900e+03	2.52664e+00	3.44500e+02
1115	3.49238e+02	1.11500e+03	2.47756e+00	3.47500e+02
1121	3.52174e+02	1.12100e+03	2.41936e+00	3.50500e+02
1127	3.55100e+02	1.12700e+03	2.35224e+00	3.53500e+02
1133	3.58066e+02	1.13300e+03	2.27498e+00	3.56500e+02
1139	3.61032e+02	1.13900e+03	2.18836e+00	3.59500e+02
1145	3.63997e+02	1.14500e+03	2.09161e+00	3.62500e+02
1151	3.66949e+02	1.15100e+03	1.98692e+00	3.65500e+02
1157	3.70278e+02	1.15700e+03	1.87307e+00	3.68500e+02
1163	3.73292e+02	1.16300e+03	1.75156e+00	3.71500e+02
1169	3.76364e+02	1.16900e+03	1.62255e+00	3.74500e+02
1175	3.79265e+02	1.17500e+03	1.48972e+00	3.77500e+02
1181	3.82358e+02	1.18100e+03	1.35427e+00	3.80500e+02
1187	3.85360e+02	1.18700e+03	1.21425e+00	3.83500e+02
1193	3.88437e+02	1.19300e+03	1.07020e+00	3.86500e+02
1199	3.91482e+02	1.19900e+03	9.29762e-01	3.89500e+02
1205	3.94502e+02	1.20500e+03	7.94361e-01	3.92500e+02
1211	3.97491e+02	1.21100e+03	6.65533e-01	3.95500e+02
1217	4.00507e+02	1.21700e+03	5.48550e-01	3.98500e+02
1223	4.03490e+02	1.22300e+03	4.44549e-01	4.01500e+02
1229	4.06531e+02	1.22900e+03	3.56016e-01	4.04500e+02
1235	4.09623e+02	1.23500e+03	2.80862e-01	4.07500e+02
1241	4.12786e+02	1.24100e+03	2.20096e-01	4.10500e+02
1247	4.15771e+02	1.24700e+03	1.70597e-01	4.13500e+02
1253	4.18798e+02	1.25300e+03	1.32087e-01	4.16500e+02
1259	4.21875e+02	1.25900e+03	1.01726e-01	4.19500e+02
1265	4.24854e+02	1.26500e+03	7.93048e-02	4.22500e+02
1271	4.27874e+02	1.27100e+03	6.24106e-02	4.25500e+02
1277	4.30861e+02	1.27700e+03	5.05667e-02	4.28500e+02
1283	4.33841e+02	1.28300e+03	4.20083e-02	4.31500e+02
1289	4.36803e+02	1.28900e+03	3.63562e-02	4.34500e+02
1295	4.39732e+02	1.29500e+03	3.22230e-02	4.37500e+02
1301	4.42666e+02	1.30100e+03	2.94702e-02	4.40500e+02
1307	4.45634e+02	1.30700e+03	2.75436e-02	4.43500e+02
1313	4.48584e+02	1.31300e+03	2.63431e-02	4.46500e+02
1319	4.51548e+02	1.31900e+03	2.55323e-02	4.49500e+02
1325	4.54449e+02	1.32500e+03	2.50808e-02	4.52500e+02
1331	4.57322e+02	1.33100e+03	2.47779e-02	4.55500e+02
1337	4.60197e+02	1.33700e+03	2.45379e-02	4.58500e+02
1343	4.63027e+02	1.34300e+03	2.43979e-02	4.61500e+02
1349	4.65851e+02	1.34900e+03	2.42950e-02	4.64500e+02
1355	4.68703e+02	1.35500e+03	2.42610e-02	4.67500e+02
1361	4.71615e+02	1.36100e+03	2.41073e-02	4.70500e+02
1367	4.74523e+02	1.36700e+03	2.40419e-02	4.73500e+02
1373	4.77443e+02	1.37300e+03	2.39087e-02	4.76500e+02
1379	4.80375e+02	1.37900e+03	2.38823e-02	4.79500e+02
1385	4.83285e+02	1.38500e+03	2.39205e-02	4.82500e+02
1391	4.86217e+02	1.39100e+03	2.38203e-02	4.85500e+02
1397	4.89133e+02	1.39700e+03	2.37890e-02	4.88500e+02
1403	4.92064e+02	1.40300e+03	2.36971e-02	4.91500e+02
1409	4.95010e+02	1.40900e+03	2.34363e-02	4.94500e+02
1415	4.97937e+02	1.41500e+03	2.33937e-02	4.97500e+02
1421	5.00869e+02	1.42100e+03	2.32661e-02	5.00500e+02
1427	5.03814e+02	1.42700e+03	2.31258e-02	5.03500e+02
1433	5.06760e+02	1.43300e+03	2.31411e-02	5.06500e+02
1439	5.09710e+02	1.43900e+03	2.30426e-02	5.09500e+02
1445	5.12664e+02	1.44500e+03	2.28040e-02	5.12500e+02
1451	5.15600e+02	1.45100e+03	2.25805e-02	5.15500e+02
1457	5.18541e+02	1.45700e+03	2.27963e-02	5.18500e+02
1463	5.21482e+02	1.46300e+03	2.31197e-02	5.21500e+02
1469	5.24430e+02	1.46900e+03	2.29216e-02	5.24500e+02
1475	5.27369e+02	1.47500e+03	2.27600e-02	5.27500e+02
1481	5.30323e+02	1.48100e+03	2.26670e-02	5.30500e+02
1487	5.33268e+02	1.48700e+03	2.25431e-02	5.33500e+02
1493	5.36199e+02	1.49300e+03	2.24902e-02	5.36500e+02
1499	5.39150e+02	1.49900e+03	2.24391e-02	5.39500e+02
1505	5.42085e+02	1.50500e+03	2.23235e-02	5.42500e+02
1511	5.45023e+02	1.51100e+03	2.23201e-02	5.45500e+02
1517	5.47971e+02	1.51700e+03	2.24141e-02	5.48500e+02
1523	5.50942e+02	1.52300e+03	2.23683e-02	5.51500e+02
1529	5.53876e+02	1.52900e+03	2.21766e-02	5.54500e+02
1535	5.56807e+02	1.53500e+03	2.19138e-02	5.57500e+02
1541	5.59744e+02	1.54100e+03	2.21499e-02	5.60500e+02
1547	5.62696e+02	1.54700e+03	2.21468e-02	5.63500e+02
1553	5.65642e+02	1.55300e+03	2.19999e-02	5.66500e+02
1559	5.68611e+02	1.55900e+03	2.19918e-02	5.69500e+02
1565	5.71562e+02	1.56500e+03	2.19028e-02	5.72500e+02
1571	5.74523e+02	1.57100e+03	2.18116e-02	5.75500e+02
1577	5.77480e+02	1.57700e+03	2.18047e-02	5.78500e+02
1583	5.80449e+02	1.58300e+03	2.17776e-02	5.81500e+02
1589	5.83416e+02	1.58900e+03	2.17345e-02	5.84500e+02
1595	5.86388e+02	1.59500e+03	2.16671e-02	5.87500e+02
1601	5.89353e+02	1.60100e+03	2.17075e-02	5.90500e+02
1607	5.92325e+02	1.60700e+03	2.16275e-02	5.93500e+02
1613	5.95291e+02	1.61300e+03	2.14803e-02	5.96500e+02
1619	5.98254e+02	1.61900e+03	2.14472e-02	5.99500e+02
1625	6.01216e+02	1.62500e+03	2.12852e-02	6.02500e+02
1631	6.04177e+02	1.63100e+03	2.12577e-02	6.05500e+02
1637	6.07158e+02	1.63700e+03	2.12543e-02	6.08500e+02
1643	6.10128e+02	1.64300e+03	2.12588e-02	6.11500e+02
1649	6.13087e+02	1.64900e+03	2.13245e-02	6.14500e+02
1655	6.16052e+02	1.65500e+03	2.14261e-02	6.17500e+02
1661	6.19103e+02	1.66100e+03	2.13897e-02	6.20500e+02
1667	6.22614e+02	1.66700e+03	2.13323e-02	6.23500e+02
1673	6.25502e+02	1.67300e+03	2.13932e-02	6.26500e+02
1679	6.28476e+02	1.67900e+03	2.12715e-02	6.29500e+02
1685	6.31454e+02	1.68500e+03	2.10267e-02	6.32500e+02
1691	6.34403e+02	1.69100e+03	2.10537e-02	6.35500e+02
1697	6.37381e+02	1.69700e+03	2.11529e-02	6.38500e+02
1703	6.40349e+02	1.70300e+03	2.12299e-02	6.41500e+02
1709	6.43331e+02	1.70900e+03	2.12332e-02	6.44500e+02
1715	6.46309e+02	1.71500e+03	2.10691e-02	6.47500e+02
1721	6.49290e+02	1.72100e+03	2.08397e-02	6.50500e+02
1727	6.52276e+02	1.72700e+03	2.07737e-02	6.53500e+02
1733	6.55242e+02	1.73300e+03	2.12782e-02	6.56500e+02
1739	6.58197e+02	1.73900e+03	2.14233e-02	6.59500e+02
1745	6.61167e+02	1.74500e+03	2.11504e-02	6.62500e+02
1751	6.64129e+02	1.75100e+03	2.09871e-02	6.65500e+02
1757	6.67098e+02	1.75700e+03	2.10543e-02	6.68500e+02
1763	6.70067e+02	1.76300e+03	2.10591e-02	6.71500e+02
1769	6.73041e+02	1.76900e+03	2.11275e-02	6.74500e+02
1775	6.76021e+02	1.77500e+03	2.10651e-02	6.77500e+02
1781	6.78991e+02	1.78100e+03	2.08818e-02	6.80500e+02
1787	6.81952e+02	1.78700e+03	2.06490e-02	6.83500e+02
1793	6.84942e+02	1.79300e+03	2.05950e-02	6.86500e+02
1799	6.86816e+02	1.79900e+03	2.11235e-02	6.89500e+02
1805	6.88801e+02	1.80500e+03	2.12127e-02	6.92500e+02
1811	6.90438e+02	1.81100e+03	2.09025e-02	6.95500e+02
1817	6.91816e+02	1.81700e+03	2.07805e-02	6.98500e+02
1820	6.92420e+02	1.82000e+03	2.08418e-02	7.00000e+02