File: Experiments/TUBS/tga_nonisotherm/tga_dynamic_n2_dyn60_powder_1mg_r3.txt
index	ts	t	weight	tr
[#]	[°C]	[s]	[mg]	[°C]
643	1.29945e+02	6.43000e+02	1.00945e+00	1.33000e+02
647	1.33879e+02	6.47000e+02	1.00929e+00	1.37000e+02
651	1.37816e+02	6.51000e+02	1.00919e+00	1.41000e+02
655	1.41748e+02	6.55000e+02	1.00912e+00	1.45000e+02
659	1.45678e+02	6.59000e+02	1.00897e+00	1.49000e+02
663	1.49611e+02	6.63000e+02	1.00872e+00	1.53000e+02
667	1.53535e+02	6.67000e+02	1.00835e+00	1.57000e+02
671	1.57478e+02	6.71000e+02	1.00793e+00	1.61000e+02
675	1.61394e+02	6.75000e+02	1.00748e+00	1.65000e+02
679	1.65345e+02	6.79000e+02	1.00698e+00	1.69000e+02
683	1.69285e+02	6.83000e+02	1.00640e+00	1.73000e+02
687	1.73232e+02	6.87000e+02	1.00566e+00	1.77000e+02
691	1.77169e+02	6.91000e+02	1.00467e+00	1.81000e+02
695	1.81130e+02	6.95000e+02	1.00347e+00	1.85000e+02
699	1.85093e+02	6.99000e+02	1.00197e+00	1.89000e+02
703	1.89039e+02	7.03000e+02	9.99996e-01	1.93000e+02
707	1.93016e+02	7.07000e+02	9.97400e-01	1.97000e+02
711	1.96983e+02	7.11000e+02	9.94254e-01	2.01000e+02
715	2.00950e+02	7.15000e+02	9.90690e-01	2.05000e+02
719	2.04944e+02	7.19000e+02	9.86901e-01	2.09000e+02
723	2.08921e+02	7.23000e+02	9.83204e-01	2.13000e+02
727	2.12922e+02	7.27000e+02	9.79948e-01	2.17000e+02
731	2.16898e+02	7.31000e+02	9.77351e-01	2.21000e+02
735	2.20900e+02	7.35000e+02	9.75407e-01	2.25000e+02
739	2.24907e+02	7.39000e+02	9.73965e-01	2.29000e+02
743	2.28891e+02	7.43000e+02	9.72813e-01	2.33000e+02
747	2.32906e+02	7.47000e+02	9.71781e-01	2.37000e+02
751	2.36911e+02	7.51000e+02	9.70781e-01	2.41000e+02
755	2.40910e+02	7.55000e+02	9.69819e-01	2.45000e+02
759	2.44934e+02	7.59000e+02	9.68863e-01	2.49000e+02
763	2.48949e+02	7.63000e+02	9.67856e-01	2.53000e+02
767	2.52954e+02	7.67000e+02	9.66841e-01	2.57000e+02
771	2.56952e+02	7.71000e+02	9.65819e-01	2.61000e+02
775	2.60985e+02	7.75000e+02	9.64787e-01	2.65000e+02
779	2.65011e+02	7.79000e+02	9.63816e-01	2.69000e+02
783	2.69038e+02	7.83000e+02	9.62974e-01	2.73000e+02
787	2.73046e+02	7.87000e+02	9.62172e-01	2.77000e+02
791	2.77086e+02	7.91000e+02	9.61290e-01	2.81000e+02
795	2.81107e+02	7.95000e+02	9.60350e-01	2.85000e+02
799	2.85119e+02	7.99000e+02	9.59299e-01	2.89000e+02
803	2.89152e+02	8.03000e+02	9.57974e-01	2.93000e+02
807	2.93179e+02	8.07000e+02	9.56247e-01	2.97000e+02
811	2.97209e+02	8.11000e+02	9.54122e-01	3.01000e+02
815	3.01225e+02	8.15000e+02	9.51562e-01	3.05000e+02
819	3.05254e+02	8.19000e+02	9.48392e-01	3.09000e+02
823	3.09275e+02	8.23000e+02	9.44448e-01	3.13000e+02
827	3.13290e+02	8.27000e+02	9.39677e-01	3.17000e+02
831	3.17320e+02	8.31000e+02	9.34207e-01	3.21000e+02
835	3.21338e+02	8.35000e+02	9.28258e-01	3.25000e+02
839	3.25357e+02	8.39000e+02	9.22040e-01	3.29000e+02
843	3.29373e+02	8.43000e+02	9.15657e-01	3.33000e+02
847	3.33387e+02	8.47000e+02	9.08963e-01	3.37000e+02
851	3.37406e+02	8.51000e+02	9.01510e-01	3.41000e+02
855	3.41408e+02	8.55000e+02	8.92646e-01	3.45000e+02
859	3.45407e+02	8.59000e+02	8.81590e-01	3.49000e+02
863	3.49409e+02	8.63000e+02	8.67586e-01	3.53000e+02
867	3.53375e+02	8.67000e+02	8.49880e-01	3.57000e+02
871	3.57357e+02	8.71000e+02	8.27672e-01	3.61000e+02
875	3.61321e+02	8.75000e+02	8.00430e-01	3.65000e+02
879	3.65285e+02	8.79000e+02	7.67862e-01	3.69000e+02
883	3.69230e+02	8.83000e+02	7.29882e-01	3.73000e+02
887	3.73181e+02	8.87000e+02	6.86618e-01	3.77000e+02
891	3.77118e+02	8.91000e+02	6.38344e-01	3.81000e+02
895	3.81055e+02	8.95000e+02	5.85200e-01	3.85000e+02
899	3.85009e+02	8.99000e+02	5.27416e-01	3.89000e+02
903	3.88969e+02	9.03000e+02	4.65741e-01	3.93000e+02
907	3.92919e+02	9.07000e+02	4.01605e-01	3.97000e+02
911	3.96898e+02	9.11000e+02	3.37178e-01	4.01000e+02
915	4.00870e+02	9.15000e+02	2.74670e-01	4.05000e+02
919	4.04836e+02	9.19000e+02	2.15944e-01	4.09000e+02
923	4.08826e+02	9.23000e+02	1.62441e-01	4.13000e+02
927	4.12802e+02	9.27000e+02	1.15432e-01	4.17000e+02
931	4.16791e+02	9.31000e+02	7.57372e-02	4.21000e+02
935	4.20763e+02	9.35000e+02	4.35130e-02	4.25000e+02
939	4.24746e+02	9.39000e+02	1.83084e-02	4.29000e+02
943	4.28718e+02	9.43000e+02	-7.86579e-04	4.33000e+02
947	4.32691e+02	9.47000e+02	-1.46447e-02	4.37000e+02
951	4.36649e+02	9.51000e+02	-2.42537e-02	4.41000e+02
955	4.40621e+02	9.55000e+02	-3.06677e-02	4.45000e+02
959	4.44572e+02	9.59000e+02	-3.48070e-02	4.49000e+02
963	4.48520e+02	9.63000e+02	-3.74317e-02	4.53000e+02
967	4.52468e+02	9.67000e+02	-3.90899e-02	4.57000e+02
971	4.56408e+02	9.71000e+02	-4.01054e-02	4.61000e+02
975	4.60352e+02	9.75000e+02	-4.06196e-02	4.65000e+02
979	4.64284e+02	9.79000e+02	-4.08720e-02	4.69000e+02
983	4.68233e+02	9.83000e+02	-4.10785e-02	4.73000e+02
987	4.72174e+02	9.87000e+02	-4.12717e-02	4.77000e+02
991	4.76121e+02	9.91000e+02	-4.14215e-02	4.81000e+02
995	4.80057e+02	9.95000e+02	-4.14863e-02	4.85000e+02
999	4.84002e+02	9.99000e+02	-4.15683e-02	4.89000e+02
1003	4.87940e+02	1.00300e+03	-4.16755e-02	4.93000e+02
1007	4.91888e+02	1.00700e+03	-4.17299e-02	4.97000e+02
1011	4.95830e+02	1.01100e+03	-4.17931e-02	5.01000e+02
1015	4.99779e+02	1.01500e+03	-4.18589e-02	5.05000e+02
1019	5.03724e+02	1.01900e+03	-4.18778e-02	5.09000e+02
1023	5.07676e+02	1.02300e+03	-4.18714e-02	5.13000e+02
1027	5.11630e+02	1.02700e+03	-4.18651e-02	5.17000e+02
1031	5.15575e+02	1.03100e+03	-4.19067e-02	5.21000e+02
1035	5.19521e+02	1.03500e+03	-4.19725e-02	5.25000e+02
1039	5.23464e+02	1.03900e+03	-4.19985e-02	5.29000e+02
1043	5.27395e+02	1.04300e+03	-4.19684e-02	5.33000e+02
1047	5.31353e+02	1.04700e+03	-4.19580e-02	5.37000e+02
1051	5.35294e+02	1.05100e+03	-4.20323e-02	5.41000e+02
1055	5.39247e+02	1.05500e+03	-4.21330e-02	5.45000e+02
1059	5.43184e+02	1.05900e+03	-4.21967e-02	5.49000e+02
1063	5.47138e+02	1.06300e+03	-4.21778e-02	5.53000e+02
1067	5.51084e+02	1.06700e+03	-4.20880e-02	5.57000e+02
1071	5.55022e+02	1.07100e+03	-4.20232e-02	5.61000e+02
1075	5.58965e+02	1.07500e+03	-4.20573e-02	5.65000e+02
1079	5.62927e+02	1.07900e+03	-4.21229e-02	5.69000e+02
1083	5.66865e+02	1.08300e+03	-4.21333e-02	5.73000e+02
1087	5.70828e+02	1.08700e+03	-4.21453e-02	5.77000e+02
1091	5.74764e+02	1.09100e+03	-4.21400e-02	5.81000e+02
1095	5.78725e+02	1.09500e+03	-4.21111e-02	5.85000e+02
1099	5.82671e+02	1.09900e+03	-4.21566e-02	5.89000e+02
1103	5.86623e+02	1.10300e+03	-4.22212e-02	5.93000e+02
1107	5.90575e+02	1.10700e+03	-4.22288e-02	5.97000e+02
1111	5.94527e+02	1.11100e+03	-4.22159e-02	6.01000e+02
1115	5.98482e+02	1.11500e+03	-4.22258e-02	6.05000e+02
1119	6.02433e+02	1.11900e+03	-4.22647e-02	6.09000e+02
1123	6.06387e+02	1.12300e+03	-4.22956e-02	6.13000e+02
1127	6.10322e+02	1.12700e+03	-4.23377e-02	6.17000e+02
1131	6.14264e+02	1.13100e+03	-4.23522e-02	6.21000e+02
1135	6.18231e+02	1.13500e+03	-4.22819e-02	6.25000e+02
1139	6.22188e+02	1.13900e+03	-4.22251e-02	6.29000e+02
1143	6.26157e+02	1.14300e+03	-4.23029e-02	6.33000e+02
1147	6.30121e+02	1.14700e+03	-4.24374e-02	6.37000e+02
1151	6.34091e+02	1.15100e+03	-4.24840e-02	6.41000e+02
1155	6.38061e+02	1.15500e+03	-4.24393e-02	6.45000e+02
1159	6.42038e+02	1.15900e+03	-4.23772e-02	6.49000e+02
1163	6.46008e+02	1.16300e+03	-4.23728e-02	6.53000e+02
1167	6.49983e+02	1.16700e+03	-4.23923e-02	6.57000e+02
1171	6.53963e+02	1.17100e+03	-4.23699e-02	6.61000e+02
1175	6.57944e+02	1.17500e+03	-4.23452e-02	6.65000e+02
1179	6.61937e+02	1.17900e+03	-4.23547e-02	6.69000e+02
1183	6.65912e+02	1.18300e+03	-4.23872e-02	6.73000e+02
1187	6.68220e+02	1.18700e+03	-4.23298e-02	6.77000e+02
1191	6.71142e+02	1.19100e+03	-4.21020e-02	6.81000e+02
1195	6.73748e+02	1.19500e+03	-4.19895e-02	6.85000e+02
1199	6.76063e+02	1.19900e+03	-4.21228e-02	6.89000e+02
1203	6.78113e+02	1.20300e+03	-4.22723e-02	6.93000e+02
1207	6.79937e+02	1.20700e+03	-4.23226e-02	6.97000e+02
1210	6.81167e+02	1.21000e+03	-4.23390e-02	7.00000e+02