File: Experiments/TUBS/tga_nonisotherm/tga_dynamic_n2_dyn60_piece_2mg_r3.txt
index	ts	t	weight	tr
[#]	[°C]	[s]	[mg]	[°C]
643	1.30130e+02	6.43000e+02	1.98475e+00	1.33000e+02
646	1.33171e+02	6.46000e+02	1.98473e+00	1.36000e+02
649	1.36205e+02	6.49000e+02	1.98473e+00	1.39000e+02
652	1.39206e+02	6.52000e+02	1.98470e+00	1.42000e+02
655	1.42223e+02	6.55000e+02	1.98464e+00	1.45000e+02
658	1.45228e+02	6.58000e+02	1.98456e+00	1.48000e+02
661	1.48243e+02	6.61000e+02	1.98449e+00	1.51000e+02
664	1.51245e+02	6.64000e+02	1.98440e+00	1.54000e+02
667	1.54256e+02	6.67000e+02	1.98431e+00	1.57000e+02
670	1.57254e+02	6.70000e+02	1.98423e+00	1.60000e+02
673	1.60257e+02	6.73000e+02	1.98416e+00	1.63000e+02
676	1.63244e+02	6.76000e+02	1.98411e+00	1.66000e+02
679	1.66244e+02	6.79000e+02	1.98410e+00	1.69000e+02
682	1.69247e+02	6.82000e+02	1.98413e+00	1.72000e+02
685	1.72221e+02	6.85000e+02	1.98412e+00	1.75000e+02
688	1.75222e+02	6.88000e+02	1.98405e+00	1.78000e+02
691	1.78213e+02	6.91000e+02	1.98392e+00	1.81000e+02
694	1.81200e+02	6.94000e+02	1.98373e+00	1.84000e+02
697	1.84194e+02	6.97000e+02	1.98353e+00	1.87000e+02
700	1.87194e+02	7.00000e+02	1.98330e+00	1.90000e+02
703	1.90186e+02	7.03000e+02	1.98303e+00	1.93000e+02
706	1.93189e+02	7.06000e+02	1.98270e+00	1.96000e+02
709	1.96183e+02	7.09000e+02	1.98227e+00	1.99000e+02
712	1.99181e+02	7.12000e+02	1.98169e+00	2.02000e+02
715	2.02174e+02	7.15000e+02	1.98101e+00	2.05000e+02
718	2.05181e+02	7.18000e+02	1.98018e+00	2.08000e+02
721	2.08196e+02	7.21000e+02	1.97919e+00	2.11000e+02
724	2.11200e+02	7.24000e+02	1.97807e+00	2.14000e+02
727	2.14220e+02	7.27000e+02	1.97686e+00	2.17000e+02
730	2.17213e+02	7.30000e+02	1.97554e+00	2.20000e+02
733	2.20225e+02	7.33000e+02	1.97414e+00	2.23000e+02
736	2.23232e+02	7.36000e+02	1.97272e+00	2.26000e+02
739	2.26251e+02	7.39000e+02	1.97126e+00	2.29000e+02
742	2.29253e+02	7.42000e+02	1.96976e+00	2.32000e+02
745	2.32271e+02	7.45000e+02	1.96821e+00	2.35000e+02
748	2.35283e+02	7.48000e+02	1.96661e+00	2.38000e+02
751	2.38298e+02	7.51000e+02	1.96500e+00	2.41000e+02
754	2.41304e+02	7.54000e+02	1.96341e+00	2.44000e+02
757	2.44335e+02	7.57000e+02	1.96180e+00	2.47000e+02
760	2.47351e+02	7.60000e+02	1.96011e+00	2.50000e+02
763	2.50384e+02	7.63000e+02	1.95837e+00	2.53000e+02
766	2.53355e+02	7.66000e+02	1.95656e+00	2.56000e+02
769	2.56370e+02	7.69000e+02	1.95471e+00	2.59000e+02
772	2.59384e+02	7.72000e+02	1.95283e+00	2.62000e+02
775	2.62409e+02	7.75000e+02	1.95093e+00	2.65000e+02
778	2.65421e+02	7.78000e+02	1.94895e+00	2.68000e+02
781	2.68452e+02	7.81000e+02	1.94686e+00	2.71000e+02
784	2.71495e+02	7.84000e+02	1.94468e+00	2.74000e+02
787	2.74564e+02	7.87000e+02	1.94249e+00	2.77000e+02
790	2.77587e+02	7.90000e+02	1.94029e+00	2.80000e+02
793	2.80641e+02	7.93000e+02	1.93806e+00	2.83000e+02
796	2.83672e+02	7.96000e+02	1.93578e+00	2.86000e+02
799	2.86702e+02	7.99000e+02	1.93337e+00	2.89000e+02
802	2.89729e+02	8.02000e+02	1.93076e+00	2.92000e+02
805	2.92754e+02	8.05000e+02	1.92806e+00	2.95000e+02
808	2.95769e+02	8.08000e+02	1.92535e+00	2.98000e+02
811	2.98803e+02	8.11000e+02	1.92257e+00	3.01000e+02
814	3.01812e+02	8.14000e+02	1.91964e+00	3.04000e+02
817	3.04857e+02	8.17000e+02	1.91650e+00	3.07000e+02
820	3.07870e+02	8.20000e+02	1.91310e+00	3.10000e+02
823	3.10888e+02	8.23000e+02	1.90944e+00	3.13000e+02
826	3.13903e+02	8.26000e+02	1.90534e+00	3.16000e+02
829	3.16916e+02	8.29000e+02	1.90082e+00	3.19000e+02
832	3.19921e+02	8.32000e+02	1.89587e+00	3.22000e+02
835	3.22931e+02	8.35000e+02	1.89059e+00	3.25000e+02
838	3.25973e+02	8.38000e+02	1.88487e+00	3.28000e+02
841	3.29024e+02	8.41000e+02	1.87892e+00	3.31000e+02
844	3.32075e+02	8.44000e+02	1.87277e+00	3.34000e+02
847	3.35164e+02	8.47000e+02	1.86643e+00	3.37000e+02
850	3.38217e+02	8.50000e+02	1.85979e+00	3.40000e+02
853	3.41252e+02	8.53000e+02	1.85276e+00	3.43000e+02
856	3.44288e+02	8.56000e+02	1.84506e+00	3.46000e+02
859	3.47291e+02	8.59000e+02	1.83656e+00	3.49000e+02
862	3.50279e+02	8.62000e+02	1.82657e+00	3.52000e+02
865	3.53280e+02	8.65000e+02	1.81489e+00	3.55000e+02
868	3.56279e+02	8.68000e+02	1.80102e+00	3.58000e+02
871	3.59283e+02	8.71000e+02	1.78478e+00	3.61000e+02
874	3.62314e+02	8.74000e+02	1.76439e+00	3.64000e+02
877	3.65451e+02	8.77000e+02	1.73976e+00	3.67000e+02
880	3.68427e+02	8.80000e+02	1.70990e+00	3.70000e+02
883	3.71408e+02	8.83000e+02	1.67597e+00	3.73000e+02
886	3.74373e+02	8.86000e+02	1.63175e+00	3.76000e+02
889	3.77309e+02	8.89000e+02	1.57882e+00	3.79000e+02
892	3.80258e+02	8.92000e+02	1.51609e+00	3.82000e+02
895	3.83199e+02	8.95000e+02	1.44462e+00	3.85000e+02
898	3.86147e+02	8.98000e+02	1.36242e+00	3.88000e+02
901	3.89091e+02	9.01000e+02	1.27304e+00	3.91000e+02
904	3.92022e+02	9.04000e+02	1.17938e+00	3.94000e+02
907	3.95040e+02	9.07000e+02	1.08261e+00	3.97000e+02
910	3.98081e+02	9.10000e+02	9.82840e-01	4.00000e+02
913	4.01025e+02	9.13000e+02	8.82652e-01	4.03000e+02
916	4.04021e+02	9.16000e+02	7.82044e-01	4.06000e+02
919	4.07153e+02	9.19000e+02	6.81394e-01	4.09000e+02
922	4.10273e+02	9.22000e+02	5.82004e-01	4.12000e+02
925	4.13865e+02	9.25000e+02	4.86295e-01	4.15000e+02
928	4.16452e+02	9.28000e+02	3.95258e-01	4.18000e+02
931	4.19352e+02	9.31000e+02	3.12809e-01	4.21000e+02
934	4.22142e+02	9.34000e+02	2.42922e-01	4.24000e+02
937	4.25127e+02	9.37000e+02	1.83883e-01	4.27000e+02
940	4.28129e+02	9.40000e+02	1.37332e-01	4.30000e+02
943	4.31148e+02	9.43000e+02	9.90457e-02	4.33000e+02
946	4.34164e+02	9.46000e+02	7.14900e-02	4.36000e+02
949	4.37183e+02	9.49000e+02	5.14364e-02	4.39000e+02
952	4.40196e+02	9.52000e+02	3.60838e-02	4.42000e+02
955	4.43205e+02	9.55000e+02	2.44124e-02	4.45000e+02
958	4.46188e+02	9.58000e+02	1.71577e-02	4.48000e+02
961	4.49196e+02	9.61000e+02	1.19189e-02	4.51000e+02
964	4.52206e+02	9.64000e+02	8.06884e-03	4.54000e+02
967	4.55201e+02	9.67000e+02	5.14935e-03	4.57000e+02
970	4.58186e+02	9.70000e+02	3.26435e-03	4.60000e+02
973	4.61149e+02	9.73000e+02	1.84620e-03	4.63000e+02
976	4.64124e+02	9.76000e+02	7.91447e-04	4.66000e+02
979	4.67093e+02	9.79000e+02	-8.03519e-06	4.69000e+02
982	4.70076e+02	9.82000e+02	-5.07675e-04	4.72000e+02
985	4.73094e+02	9.85000e+02	-8.50601e-04	4.75000e+02
988	4.76153e+02	9.88000e+02	-1.07461e-03	4.78000e+02
991	4.79112e+02	9.91000e+02	-1.24026e-03	4.81000e+02
994	4.82045e+02	9.94000e+02	-1.35770e-03	4.84000e+02
997	4.84969e+02	9.97000e+02	-1.46447e-03	4.87000e+02
1000	4.87906e+02	1.00000e+03	-1.55594e-03	4.90000e+02
1003	4.90821e+02	1.00300e+03	-1.62458e-03	4.93000e+02
1006	4.93752e+02	1.00600e+03	-1.67254e-03	4.96000e+02
1009	4.96683e+02	1.00900e+03	-1.71519e-03	4.99000e+02
1012	4.99626e+02	1.01200e+03	-1.76370e-03	5.02000e+02
1015	5.02573e+02	1.01500e+03	-1.84070e-03	5.05000e+02
1018	5.05478e+02	1.01800e+03	-1.92752e-03	5.08000e+02
1021	5.08411e+02	1.02100e+03	-1.96528e-03	5.11000e+02
1024	5.11376e+02	1.02400e+03	-1.97275e-03	5.14000e+02
1027	5.14338e+02	1.02700e+03	-1.97581e-03	5.17000e+02
1030	5.17318e+02	1.03000e+03	-1.98236e-03	5.20000e+02
1033	5.20301e+02	1.03300e+03	-1.99117e-03	5.23000e+02
1036	5.23370e+02	1.03600e+03	-1.99200e-03	5.26000e+02
1039	5.26378e+02	1.03900e+03	-2.00684e-03	5.29000e+02
1042	5.29327e+02	1.04200e+03	-2.07597e-03	5.32000e+02
1045	5.32259e+02	1.04500e+03	-2.17460e-03	5.35000e+02
1048	5.35224e+02	1.04800e+03	-2.21380e-03	5.38000e+02
1051	5.38141e+02	1.05100e+03	-2.21134e-03	5.41000e+02
1054	5.41051e+02	1.05400e+03	-2.18826e-03	5.44000e+02
1057	5.43991e+02	1.05700e+03	-2.22679e-03	5.47000e+02
1060	5.46951e+02	1.06000e+03	-2.33704e-03	5.50000e+02
1063	5.49886e+02	1.06300e+03	-2.43936e-03	5.53000e+02
1066	5.52757e+02	1.06600e+03	-2.48084e-03	5.56000e+02
1069	5.55663e+02	1.06900e+03	-2.47719e-03	5.59000e+02
1072	5.58578e+02	1.07200e+03	-2.47366e-03	5.62000e+02
1075	5.61505e+02	1.07500e+03	-2.46463e-03	5.65000e+02
1078	5.64438e+02	1.07800e+03	-2.43992e-03	5.68000e+02
1081	5.67370e+02	1.08100e+03	-2.40148e-03	5.71000e+02
1084	5.70284e+02	1.08400e+03	-2.37900e-03	5.74000e+02
1087	5.73204e+02	1.08700e+03	-2.39345e-03	5.77000e+02
1090	5.76149e+02	1.09000e+03	-2.43855e-03	5.80000e+02
1093	5.79107e+02	1.09300e+03	-2.44892e-03	5.83000e+02
1096	5.82083e+02	1.09600e+03	-2.44875e-03	5.86000e+02
1099	5.85038e+02	1.09900e+03	-2.48052e-03	5.89000e+02
1102	5.88028e+02	1.10200e+03	-2.55268e-03	5.92000e+02
1105	5.91014e+02	1.10500e+03	-2.60376e-03	5.95000e+02
1108	5.93966e+02	1.10800e+03	-2.63456e-03	5.98000e+02
1111	5.96924e+02	1.11100e+03	-2.64449e-03	6.01000e+02
1114	5.99891e+02	1.11400e+03	-2.62515e-03	6.04000e+02
1117	6.02844e+02	1.11700e+03	-2.60371e-03	6.07000e+02
1120	6.05811e+02	1.12000e+03	-2.60428e-03	6.10000e+02
1123	6.08771e+02	1.12300e+03	-2.61609e-03	6.13000e+02
1126	6.11784e+02	1.12600e+03	-2.64934e-03	6.16000e+02
1129	6.14790e+02	1.12900e+03	-2.69792e-03	6.19000e+02
1132	6.17760e+02	1.13200e+03	-2.72315e-03	6.22000e+02
1135	6.20736e+02	1.13500e+03	-2.71337e-03	6.25000e+02
1138	6.23672e+02	1.13800e+03	-2.66038e-03	6.28000e+02
1141	6.26611e+02	1.14100e+03	-2.60194e-03	6.31000e+02
1144	6.29569e+02	1.14400e+03	-2.55090e-03	6.34000e+02
1147	6.32527e+02	1.14700e+03	-2.54209e-03	6.37000e+02
1150	6.35510e+02	1.15000e+03	-2.63126e-03	6.40000e+02
1153	6.38485e+02	1.15300e+03	-2.77188e-03	6.43000e+02
1156	6.41460e+02	1.15600e+03	-2.82552e-03	6.46000e+02
1159	6.44431e+02	1.15900e+03	-2.81691e-03	6.49000e+02
1162	6.47420e+02	1.16200e+03	-2.74249e-03	6.52000e+02
1165	6.50409e+02	1.16500e+03	-2.65355e-03	6.55000e+02
1168	6.53382e+02	1.16800e+03	-2.53365e-03	6.58000e+02
1171	6.56382e+02	1.17100e+03	-2.44627e-03	6.61000e+02
1174	6.59367e+02	1.17400e+03	-2.48092e-03	6.64000e+02
1177	6.62323e+02	1.17700e+03	-2.63975e-03	6.67000e+02
1180	6.65296e+02	1.18000e+03	-2.80963e-03	6.70000e+02
1183	6.68286e+02	1.18300e+03	-2.94210e-03	6.73000e+02
1186	6.70053e+02	1.18600e+03	-2.92960e-03	6.76000e+02
1189	6.72173e+02	1.18900e+03	-2.76647e-03	6.79000e+02
1192	6.74307e+02	1.19200e+03	-2.64350e-03	6.82000e+02
1195	6.76264e+02	1.19500e+03	-2.62068e-03	6.85000e+02
1198	6.77977e+02	1.19800e+03	-2.71193e-03	6.88000e+02
1201	6.79550e+02	1.20100e+03	-2.76439e-03	6.91000e+02
1204	6.81051e+02	1.20400e+03	-2.76442e-03	6.94000e+02
1207	6.82421e+02	1.20700e+03	-2.77596e-03	6.97000e+02
1210	6.83668e+02	1.21000e+03	-2.75640e-03	7.00000e+02