File: Experiments/TUBS/tga_nonisotherm/tga_dynamic_n2_dyn60_piece_1mg_r3.txt
index	ts	t	weight	tr
[#]	[°C]	[s]	[mg]	[°C]
643	1.30560e+02	6.43000e+02	9.85562e-01	1.33000e+02
647	1.34611e+02	6.47000e+02	9.85474e-01	1.37000e+02
651	1.38631e+02	6.51000e+02	9.85556e-01	1.41000e+02
655	1.42649e+02	6.55000e+02	9.85609e-01	1.45000e+02
659	1.46654e+02	6.59000e+02	9.85559e-01	1.49000e+02
663	1.50670e+02	6.63000e+02	9.85478e-01	1.53000e+02
667	1.54650e+02	6.67000e+02	9.85410e-01	1.57000e+02
671	1.58646e+02	6.71000e+02	9.85350e-01	1.61000e+02
675	1.62627e+02	6.75000e+02	9.85265e-01	1.65000e+02
679	1.66605e+02	6.79000e+02	9.85204e-01	1.69000e+02
683	1.70585e+02	6.83000e+02	9.85182e-01	1.73000e+02
687	1.74590e+02	6.87000e+02	9.85148e-01	1.77000e+02
691	1.78580e+02	6.91000e+02	9.85073e-01	1.81000e+02
695	1.82564e+02	6.95000e+02	9.84984e-01	1.85000e+02
699	1.86550e+02	6.99000e+02	9.84945e-01	1.89000e+02
703	1.90547e+02	7.03000e+02	9.84804e-01	1.93000e+02
707	1.94542e+02	7.07000e+02	9.84476e-01	1.97000e+02
711	1.98542e+02	7.11000e+02	9.84134e-01	2.01000e+02
715	2.02545e+02	7.15000e+02	9.83815e-01	2.05000e+02
719	2.06543e+02	7.19000e+02	9.83332e-01	2.09000e+02
723	2.10544e+02	7.23000e+02	9.82682e-01	2.13000e+02
727	2.14563e+02	7.27000e+02	9.81931e-01	2.17000e+02
731	2.18588e+02	7.31000e+02	9.81085e-01	2.21000e+02
735	2.22611e+02	7.35000e+02	9.80198e-01	2.25000e+02
739	2.26635e+02	7.39000e+02	9.79250e-01	2.29000e+02
743	2.30628e+02	7.43000e+02	9.78255e-01	2.33000e+02
747	2.34658e+02	7.47000e+02	9.77242e-01	2.37000e+02
751	2.38662e+02	7.51000e+02	9.76217e-01	2.41000e+02
755	2.42684e+02	7.55000e+02	9.75184e-01	2.45000e+02
759	2.46680e+02	7.59000e+02	9.74124e-01	2.49000e+02
763	2.50633e+02	7.63000e+02	9.73040e-01	2.53000e+02
767	2.54623e+02	7.67000e+02	9.71958e-01	2.57000e+02
771	2.58631e+02	7.71000e+02	9.70832e-01	2.61000e+02
775	2.62678e+02	7.75000e+02	9.69643e-01	2.65000e+02
779	2.66737e+02	7.79000e+02	9.68347e-01	2.69000e+02
783	2.70880e+02	7.83000e+02	9.66992e-01	2.73000e+02
787	2.75005e+02	7.87000e+02	9.65679e-01	2.77000e+02
791	2.79057e+02	7.91000e+02	9.64327e-01	2.81000e+02
795	2.83132e+02	7.95000e+02	9.62918e-01	2.85000e+02
799	2.87193e+02	7.99000e+02	9.61405e-01	2.89000e+02
803	2.91226e+02	8.03000e+02	9.59716e-01	2.93000e+02
807	2.95273e+02	8.07000e+02	9.57882e-01	2.97000e+02
811	2.99621e+02	8.11000e+02	9.55955e-01	3.01000e+02
815	3.03890e+02	8.15000e+02	9.53957e-01	3.05000e+02
819	3.08006e+02	8.19000e+02	9.51759e-01	3.09000e+02
823	3.12039e+02	8.23000e+02	9.49227e-01	3.13000e+02
827	3.16064e+02	8.27000e+02	9.46362e-01	3.17000e+02
831	3.20206e+02	8.31000e+02	9.43147e-01	3.21000e+02
835	3.24316e+02	8.35000e+02	9.39532e-01	3.25000e+02
839	3.28331e+02	8.39000e+02	9.35620e-01	3.29000e+02
843	3.32354e+02	8.43000e+02	9.31579e-01	3.33000e+02
847	3.36387e+02	8.47000e+02	9.27350e-01	3.37000e+02
851	3.40446e+02	8.51000e+02	9.22814e-01	3.41000e+02
855	3.44468e+02	8.55000e+02	9.17790e-01	3.45000e+02
859	3.48567e+02	8.59000e+02	9.11904e-01	3.49000e+02
863	3.52636e+02	8.63000e+02	9.04682e-01	3.53000e+02
867	3.56702e+02	8.67000e+02	8.95689e-01	3.57000e+02
871	3.60922e+02	8.71000e+02	8.84400e-01	3.61000e+02
875	3.65185e+02	8.75000e+02	8.69873e-01	3.65000e+02
879	3.69316e+02	8.79000e+02	8.50473e-01	3.69000e+02
883	3.73239e+02	8.83000e+02	8.24346e-01	3.73000e+02
887	3.77117e+02	8.87000e+02	7.90610e-01	3.77000e+02
891	3.81139e+02	8.91000e+02	7.48662e-01	3.81000e+02
895	3.85166e+02	8.95000e+02	6.98490e-01	3.85000e+02
899	3.89146e+02	8.99000e+02	6.41372e-01	3.89000e+02
903	3.93076e+02	9.03000e+02	5.78990e-01	3.93000e+02
907	3.97099e+02	9.07000e+02	5.12905e-01	3.97000e+02
911	4.01106e+02	9.11000e+02	4.44841e-01	4.01000e+02
915	4.05145e+02	9.15000e+02	3.76298e-01	4.05000e+02
919	4.09256e+02	9.19000e+02	3.08119e-01	4.09000e+02
923	4.13282e+02	9.23000e+02	2.42067e-01	4.13000e+02
927	4.17355e+02	9.27000e+02	1.81505e-01	4.17000e+02
931	4.21271e+02	9.31000e+02	1.29790e-01	4.21000e+02
935	4.25444e+02	9.35000e+02	8.83383e-02	4.25000e+02
939	4.29329e+02	9.39000e+02	5.66578e-02	4.29000e+02
943	4.33072e+02	9.43000e+02	3.34689e-02	4.33000e+02
947	4.36938e+02	9.47000e+02	1.73337e-02	4.37000e+02
951	4.40891e+02	9.51000e+02	6.73227e-03	4.41000e+02
955	4.44681e+02	9.55000e+02	7.30105e-05	4.45000e+02
959	4.48460e+02	9.59000e+02	-4.04806e-03	4.49000e+02
963	4.52655e+02	9.63000e+02	-6.64679e-03	4.53000e+02
967	4.56807e+02	9.67000e+02	-8.34373e-03	4.57000e+02
971	4.61491e+02	9.71000e+02	-9.50691e-03	4.61000e+02
975	4.65436e+02	9.75000e+02	-1.01292e-02	4.65000e+02
979	4.69318e+02	9.79000e+02	-1.03902e-02	4.69000e+02
983	4.73262e+02	9.83000e+02	-1.06472e-02	4.73000e+02
987	4.77023e+02	9.87000e+02	-1.08699e-02	4.77000e+02
991	4.80787e+02	9.91000e+02	-1.10374e-02	4.81000e+02
995	4.84681e+02	9.95000e+02	-1.11747e-02	4.85000e+02
999	4.88586e+02	9.99000e+02	-1.12448e-02	4.89000e+02
1003	4.92524e+02	1.00300e+03	-1.12095e-02	4.93000e+02
1007	4.96397e+02	1.00700e+03	-1.09604e-02	4.97000e+02
1011	5.00378e+02	1.01100e+03	-1.11981e-02	5.01000e+02
1015	5.04265e+02	1.01500e+03	-1.18828e-02	5.05000e+02
1019	5.08326e+02	1.01900e+03	-1.21043e-02	5.09000e+02
1023	5.11992e+02	1.02300e+03	-1.19365e-02	5.13000e+02
1027	5.15780e+02	1.02700e+03	-1.17317e-02	5.17000e+02
1031	5.19652e+02	1.03100e+03	-1.16651e-02	5.21000e+02
1035	5.23622e+02	1.03500e+03	-1.16862e-02	5.25000e+02
1039	5.27461e+02	1.03900e+03	-1.17756e-02	5.29000e+02
1043	5.31309e+02	1.04300e+03	-1.18858e-02	5.33000e+02
1047	5.35199e+02	1.04700e+03	-1.19393e-02	5.37000e+02
1051	5.39132e+02	1.05100e+03	-1.19319e-02	5.41000e+02
1055	5.43018e+02	1.05500e+03	-1.19884e-02	5.45000e+02
1059	5.47001e+02	1.05900e+03	-1.20923e-02	5.49000e+02
1063	5.50858e+02	1.06300e+03	-1.20540e-02	5.53000e+02
1067	5.54445e+02	1.06700e+03	-1.19148e-02	5.57000e+02
1071	5.58175e+02	1.07100e+03	-1.18662e-02	5.61000e+02
1075	5.62075e+02	1.07500e+03	-1.19282e-02	5.65000e+02
1079	5.66018e+02	1.07900e+03	-1.19780e-02	5.69000e+02
1083	5.69996e+02	1.08300e+03	-1.19556e-02	5.73000e+02
1087	5.73919e+02	1.08700e+03	-1.19439e-02	5.77000e+02
1091	5.77869e+02	1.09100e+03	-1.19992e-02	5.81000e+02
1095	5.81864e+02	1.09500e+03	-1.20705e-02	5.85000e+02
1099	5.85848e+02	1.09900e+03	-1.21232e-02	5.89000e+02
1103	5.89789e+02	1.10300e+03	-1.21163e-02	5.93000e+02
1107	5.93669e+02	1.10700e+03	-1.20827e-02	5.97000e+02
1111	5.97601e+02	1.11100e+03	-1.20947e-02	6.01000e+02
1115	6.01557e+02	1.11500e+03	-1.21290e-02	6.05000e+02
1119	6.05522e+02	1.11900e+03	-1.20612e-02	6.09000e+02
1123	6.09242e+02	1.12300e+03	-1.20180e-02	6.13000e+02
1127	6.13100e+02	1.12700e+03	-1.20869e-02	6.17000e+02
1131	6.16977e+02	1.13100e+03	-1.21271e-02	6.21000e+02
1135	6.20889e+02	1.13500e+03	-1.21313e-02	6.25000e+02
1139	6.24803e+02	1.13900e+03	-1.21800e-02	6.29000e+02
1143	6.28713e+02	1.14300e+03	-1.22784e-02	6.33000e+02
1147	6.32631e+02	1.14700e+03	-1.22669e-02	6.37000e+02
1151	6.36554e+02	1.15100e+03	-1.21961e-02	6.41000e+02
1155	6.40493e+02	1.15500e+03	-1.22135e-02	6.45000e+02
1159	6.44432e+02	1.15900e+03	-1.22160e-02	6.49000e+02
1163	6.48403e+02	1.16300e+03	-1.22199e-02	6.53000e+02
1167	6.52381e+02	1.16700e+03	-1.22575e-02	6.57000e+02
1171	6.56365e+02	1.17100e+03	-1.22660e-02	6.61000e+02
1175	6.60315e+02	1.17500e+03	-1.22926e-02	6.65000e+02
1179	6.64260e+02	1.17900e+03	-1.23244e-02	6.69000e+02
1183	6.68245e+02	1.18300e+03	-1.23899e-02	6.73000e+02
1187	6.70746e+02	1.18700e+03	-1.24517e-02	6.77000e+02
1191	6.73707e+02	1.19100e+03	-1.22122e-02	6.81000e+02
1195	6.76336e+02	1.19500e+03	-1.19268e-02	6.85000e+02
1199	6.78591e+02	1.19900e+03	-1.20108e-02	6.89000e+02
1203	6.80649e+02	1.20300e+03	-1.21604e-02	6.93000e+02
1207	6.82501e+02	1.20700e+03	-1.22062e-02	6.97000e+02
1210	6.83757e+02	1.21000e+03	-1.22425e-02	7.00000e+02