File: Experiments/TUBS/tga_nonisotherm/tga_dynamic_n2_dyn30_powder_6mg_r1.txt
index	ts	t	weight	tr
[#]	[°C]	[s]	[mg]	[°C]
683	1.31086e+02	6.83000e+02	6.00416e+00	1.31500e+02
689	1.34112e+02	6.89000e+02	6.00386e+00	1.34500e+02
695	1.37150e+02	6.95000e+02	6.00338e+00	1.37500e+02
701	1.40199e+02	7.01000e+02	6.00250e+00	1.40500e+02
707	1.43241e+02	7.07000e+02	6.00144e+00	1.43500e+02
713	1.46267e+02	7.13000e+02	6.00024e+00	1.46500e+02
719	1.49318e+02	7.19000e+02	5.99870e+00	1.49500e+02
725	1.52361e+02	7.25000e+02	5.99668e+00	1.52500e+02
731	1.55403e+02	7.31000e+02	5.99445e+00	1.55500e+02
737	1.58436e+02	7.37000e+02	5.99201e+00	1.58500e+02
743	1.61505e+02	7.43000e+02	5.98920e+00	1.61500e+02
749	1.64539e+02	7.49000e+02	5.98624e+00	1.64500e+02
755	1.67592e+02	7.55000e+02	5.98305e+00	1.67500e+02
761	1.70644e+02	7.61000e+02	5.97930e+00	1.70500e+02
767	1.73690e+02	7.67000e+02	5.97489e+00	1.73500e+02
773	1.76756e+02	7.73000e+02	5.96997e+00	1.76500e+02
779	1.79811e+02	7.79000e+02	5.96377e+00	1.79500e+02
785	1.82873e+02	7.85000e+02	5.95559e+00	1.82500e+02
791	1.85945e+02	7.91000e+02	5.94531e+00	1.85500e+02
797	1.89006e+02	7.97000e+02	5.93239e+00	1.88500e+02
803	1.92055e+02	8.03000e+02	5.91698e+00	1.91500e+02
809	1.95140e+02	8.09000e+02	5.89901e+00	1.94500e+02
815	1.98208e+02	8.15000e+02	5.88072e+00	1.97500e+02
821	2.01284e+02	8.21000e+02	5.86233e+00	2.00500e+02
827	2.04337e+02	8.27000e+02	5.84477e+00	2.03500e+02
833	2.07423e+02	8.33000e+02	5.82962e+00	2.06500e+02
839	2.10500e+02	8.39000e+02	5.81717e+00	2.09500e+02
845	2.13590e+02	8.45000e+02	5.80764e+00	2.12500e+02
851	2.16677e+02	8.51000e+02	5.80054e+00	2.15500e+02
857	2.19776e+02	8.57000e+02	5.79522e+00	2.18500e+02
863	2.22863e+02	8.63000e+02	5.79052e+00	2.21500e+02
869	2.25982e+02	8.69000e+02	5.78638e+00	2.24500e+02
875	2.29071e+02	8.75000e+02	5.78239e+00	2.27500e+02
881	2.32193e+02	8.81000e+02	5.77797e+00	2.30500e+02
887	2.35284e+02	8.87000e+02	5.77333e+00	2.33500e+02
893	2.38404e+02	8.93000e+02	5.76890e+00	2.36500e+02
899	2.41515e+02	8.99000e+02	5.76485e+00	2.39500e+02
905	2.44606e+02	9.05000e+02	5.76067e+00	2.42500e+02
911	2.47674e+02	9.11000e+02	5.75653e+00	2.45500e+02
917	2.50763e+02	9.17000e+02	5.75268e+00	2.48500e+02
923	2.53855e+02	9.23000e+02	5.74929e+00	2.51500e+02
929	2.56942e+02	9.29000e+02	5.74601e+00	2.54500e+02
935	2.60026e+02	9.35000e+02	5.74287e+00	2.57500e+02
941	2.63115e+02	9.41000e+02	5.73984e+00	2.60500e+02
947	2.66263e+02	9.47000e+02	5.73685e+00	2.63500e+02
953	2.69435e+02	9.53000e+02	5.73379e+00	2.66500e+02
959	2.72532e+02	9.59000e+02	5.73053e+00	2.69500e+02
965	2.75624e+02	9.65000e+02	5.72689e+00	2.72500e+02
971	2.78674e+02	9.71000e+02	5.72292e+00	2.75500e+02
977	2.81705e+02	9.77000e+02	5.71806e+00	2.78500e+02
983	2.84732e+02	9.83000e+02	5.71236e+00	2.81500e+02
989	2.87820e+02	9.89000e+02	5.70556e+00	2.84500e+02
995	2.90838e+02	9.95000e+02	5.69756e+00	2.87500e+02
1001	2.93838e+02	1.00100e+03	5.68779e+00	2.90500e+02
1007	2.96907e+02	1.00700e+03	5.67586e+00	2.93500e+02
1013	2.99864e+02	1.01300e+03	5.66140e+00	2.96500e+02
1019	3.02853e+02	1.01900e+03	5.64479e+00	2.99500e+02
1025	3.05826e+02	1.02500e+03	5.62568e+00	3.02500e+02
1031	3.08785e+02	1.03100e+03	5.60458e+00	3.05500e+02
1037	3.11775e+02	1.03700e+03	5.58099e+00	3.08500e+02
1043	3.14706e+02	1.04300e+03	5.55583e+00	3.11500e+02
1049	3.17414e+02	1.04900e+03	5.52909e+00	3.14500e+02
1055	3.20109e+02	1.05500e+03	5.50130e+00	3.17500e+02
1061	3.22919e+02	1.06100e+03	5.47187e+00	3.20500e+02
1067	3.25859e+02	1.06700e+03	5.44086e+00	3.23500e+02
1073	3.28843e+02	1.07300e+03	5.40890e+00	3.26500e+02
1079	3.31842e+02	1.07900e+03	5.37533e+00	3.29500e+02
1085	3.34837e+02	1.08500e+03	5.33727e+00	3.32500e+02
1091	3.37840e+02	1.09100e+03	5.29276e+00	3.35500e+02
1097	3.40862e+02	1.09700e+03	5.23919e+00	3.38500e+02
1103	3.43982e+02	1.10300e+03	5.17564e+00	3.41500e+02
1109	3.46907e+02	1.10900e+03	5.09851e+00	3.44500e+02
1115	3.49853e+02	1.11500e+03	5.00837e+00	3.47500e+02
1121	3.52659e+02	1.12100e+03	4.90053e+00	3.50500e+02
1127	3.55522e+02	1.12700e+03	4.77691e+00	3.53500e+02
1133	3.58459e+02	1.13300e+03	4.63449e+00	3.56500e+02
1139	3.61417e+02	1.13900e+03	4.47463e+00	3.59500e+02
1145	3.64316e+02	1.14500e+03	4.29555e+00	3.62500e+02
1151	3.67163e+02	1.15100e+03	4.10066e+00	3.65500e+02
1157	3.70007e+02	1.15700e+03	3.88893e+00	3.68500e+02
1163	3.72843e+02	1.16300e+03	3.66444e+00	3.71500e+02
1169	3.75740e+02	1.16900e+03	3.42598e+00	3.74500e+02
1175	3.78651e+02	1.17500e+03	3.17761e+00	3.77500e+02
1181	3.81632e+02	1.18100e+03	2.92005e+00	3.80500e+02
1187	3.84578e+02	1.18700e+03	2.65690e+00	3.83500e+02
1193	3.87506e+02	1.19300e+03	2.38744e+00	3.86500e+02
1199	3.90481e+02	1.19900e+03	2.11624e+00	3.89500e+02
1205	3.93434e+02	1.20500e+03	1.84848e+00	3.92500e+02
1211	3.96463e+02	1.21100e+03	1.58670e+00	3.95500e+02
1217	3.99569e+02	1.21700e+03	1.33457e+00	3.98500e+02
1223	4.02735e+02	1.22300e+03	1.09498e+00	4.01500e+02
1229	4.05919e+02	1.22900e+03	8.77088e-01	4.04500e+02
1235	4.09102e+02	1.23500e+03	6.86650e-01	4.07500e+02
1241	4.12388e+02	1.24100e+03	5.30772e-01	4.10500e+02
1247	4.15650e+02	1.24700e+03	4.05543e-01	4.13500e+02
1253	4.18695e+02	1.25300e+03	3.07208e-01	4.16500e+02
1259	4.21789e+02	1.25900e+03	2.29733e-01	4.19500e+02
1265	4.24803e+02	1.26500e+03	1.72730e-01	4.22500e+02
1271	4.27814e+02	1.27100e+03	1.30355e-01	4.25500e+02
1277	4.30855e+02	1.27700e+03	1.01334e-01	4.28500e+02
1283	4.33943e+02	1.28300e+03	8.04028e-02	4.31500e+02
1289	4.36776e+02	1.28900e+03	6.66384e-02	4.34500e+02
1295	4.39645e+02	1.29500e+03	5.69818e-02	4.37500e+02
1301	4.42621e+02	1.30100e+03	5.05512e-02	4.40500e+02
1307	4.45579e+02	1.30700e+03	4.61998e-02	4.43500e+02
1313	4.48588e+02	1.31300e+03	4.33894e-02	4.46500e+02
1319	4.51558e+02	1.31900e+03	4.14373e-02	4.49500e+02
1325	4.54520e+02	1.32500e+03	4.00895e-02	4.52500e+02
1331	4.57529e+02	1.33100e+03	3.91101e-02	4.55500e+02
1337	4.60478e+02	1.33700e+03	3.87471e-02	4.58500e+02
1343	4.63386e+02	1.34300e+03	3.86104e-02	4.61500e+02
1349	4.66244e+02	1.34900e+03	3.83350e-02	4.64500e+02
1355	4.69103e+02	1.35500e+03	3.79933e-02	4.67500e+02
1361	4.71998e+02	1.36100e+03	3.77799e-02	4.70500e+02
1367	4.74892e+02	1.36700e+03	3.76341e-02	4.73500e+02
1373	4.77788e+02	1.37300e+03	3.77284e-02	4.76500e+02
1379	4.80717e+02	1.37900e+03	3.75753e-02	4.79500e+02
1385	4.83617e+02	1.38500e+03	3.74925e-02	4.82500e+02
1391	4.86544e+02	1.39100e+03	3.73741e-02	4.85500e+02
1397	4.89464e+02	1.39700e+03	3.73485e-02	4.88500e+02
1403	4.92389e+02	1.40300e+03	3.71648e-02	4.91500e+02
1409	4.95333e+02	1.40900e+03	3.68587e-02	4.94500e+02
1415	4.98262e+02	1.41500e+03	3.67720e-02	4.97500e+02
1421	5.01195e+02	1.42100e+03	3.66940e-02	5.00500e+02
1427	5.04120e+02	1.42700e+03	3.63772e-02	5.03500e+02
1433	5.07043e+02	1.43300e+03	3.63458e-02	5.06500e+02
1439	5.09977e+02	1.43900e+03	3.64537e-02	5.09500e+02
1445	5.12921e+02	1.44500e+03	3.61175e-02	5.12500e+02
1451	5.15854e+02	1.45100e+03	3.56303e-02	5.15500e+02
1457	5.18798e+02	1.45700e+03	3.57777e-02	5.18500e+02
1463	5.21744e+02	1.46300e+03	3.60819e-02	5.21500e+02
1469	5.24663e+02	1.46900e+03	3.59199e-02	5.24500e+02
1475	5.27629e+02	1.47500e+03	3.57228e-02	5.27500e+02
1481	5.30589e+02	1.48100e+03	3.55204e-02	5.30500e+02
1487	5.33537e+02	1.48700e+03	3.53619e-02	5.33500e+02
1493	5.36459e+02	1.49300e+03	3.53740e-02	5.36500e+02
1499	5.39396e+02	1.49900e+03	3.52423e-02	5.39500e+02
1505	5.42342e+02	1.50500e+03	3.49975e-02	5.42500e+02
1511	5.45271e+02	1.51100e+03	3.50552e-02	5.45500e+02
1517	5.48209e+02	1.51700e+03	3.50443e-02	5.48500e+02
1523	5.51143e+02	1.52300e+03	3.48826e-02	5.51500e+02
1529	5.54095e+02	1.52900e+03	3.46745e-02	5.54500e+02
1535	5.57053e+02	1.53500e+03	3.42278e-02	5.57500e+02
1541	5.60019e+02	1.54100e+03	3.45271e-02	5.60500e+02
1547	5.63010e+02	1.54700e+03	3.45773e-02	5.63500e+02
1553	5.65969e+02	1.55300e+03	3.44309e-02	5.66500e+02
1559	5.68952e+02	1.55900e+03	3.43182e-02	5.69500e+02
1565	5.71932e+02	1.56500e+03	3.42785e-02	5.72500e+02
1571	5.75043e+02	1.57100e+03	3.42406e-02	5.75500e+02
1577	5.81048e+02	1.57700e+03	3.40459e-02	5.78500e+02
1583	5.83746e+02	1.58300e+03	3.40548e-02	5.81500e+02
1589	5.86576e+02	1.58900e+03	3.40257e-02	5.84500e+02
1595	5.89459e+02	1.59500e+03	3.40678e-02	5.87500e+02
1601	5.92361e+02	1.60100e+03	3.40165e-02	5.90500e+02
1607	5.95268e+02	1.60700e+03	3.38581e-02	5.93500e+02
1613	5.98117e+02	1.61300e+03	3.38229e-02	5.96500e+02
1619	6.01022e+02	1.61900e+03	3.37717e-02	5.99500e+02
1625	6.03955e+02	1.62500e+03	3.35453e-02	6.02500e+02
1631	6.06837e+02	1.63100e+03	3.35077e-02	6.05500e+02
1637	6.09758e+02	1.63700e+03	3.33766e-02	6.08500e+02
1643	6.12694e+02	1.64300e+03	3.33113e-02	6.11500e+02
1649	6.15616e+02	1.64900e+03	3.32694e-02	6.14500e+02
1655	6.18558e+02	1.65500e+03	3.32343e-02	6.17500e+02
1661	6.21483e+02	1.66100e+03	3.32460e-02	6.20500e+02
1667	6.24403e+02	1.66700e+03	3.30853e-02	6.23500e+02
1673	6.27361e+02	1.67300e+03	3.29316e-02	6.26500e+02
1679	6.30315e+02	1.67900e+03	3.29685e-02	6.29500e+02
1685	6.33320e+02	1.68500e+03	3.30796e-02	6.32500e+02
1691	6.36293e+02	1.69100e+03	3.30604e-02	6.35500e+02
1697	6.39240e+02	1.69700e+03	3.29867e-02	6.38500e+02
1703	6.42206e+02	1.70300e+03	3.29327e-02	6.41500e+02
1709	6.45098e+02	1.70900e+03	3.28074e-02	6.44500e+02
1715	6.48116e+02	1.71500e+03	3.27061e-02	6.47500e+02
1721	6.51193e+02	1.72100e+03	3.25073e-02	6.50500e+02
1727	6.54224e+02	1.72700e+03	3.25464e-02	6.53500e+02
1733	6.57172e+02	1.73300e+03	3.31485e-02	6.56500e+02
1739	6.60156e+02	1.73900e+03	3.31104e-02	6.59500e+02
1745	6.63155e+02	1.74500e+03	3.27187e-02	6.62500e+02
1751	6.66129e+02	1.75100e+03	3.26021e-02	6.65500e+02
1757	6.69085e+02	1.75700e+03	3.27675e-02	6.68500e+02
1763	6.72030e+02	1.76300e+03	3.27648e-02	6.71500e+02
1769	6.75010e+02	1.76900e+03	3.27099e-02	6.74500e+02
1775	6.77995e+02	1.77500e+03	3.27634e-02	6.77500e+02
1781	6.80940e+02	1.78100e+03	3.26447e-02	6.80500e+02
1787	6.83888e+02	1.78700e+03	3.25234e-02	6.83500e+02
1793	6.86805e+02	1.79300e+03	3.24854e-02	6.86500e+02
1799	6.88627e+02	1.79900e+03	3.29385e-02	6.89500e+02
1805	6.90524e+02	1.80500e+03	3.29649e-02	6.92500e+02
1811	6.92101e+02	1.81100e+03	3.27799e-02	6.95500e+02
1817	6.93432e+02	1.81700e+03	3.28365e-02	6.98500e+02
1820	6.93998e+02	1.82000e+03	3.28272e-02	7.00000e+02