File: Experiments/TUBS/tga_nonisotherm/tga_dynamic_n2high50_dyn30_piece_3mg_r3.txt
Index	Ts	t	Weight	Tr
[#]	[°C]	[s]	[mg]	[°C]
682	1.30269e+02	6.82000e+02	2.96349	131.0
692	1.35277e+02	6.92000e+02	2.9634	136.0
702	1.40289e+02	7.02000e+02	2.96305	141.0
712	1.45327e+02	7.12000e+02	2.96278	146.0
722	1.50339e+02	7.22000e+02	2.96247	151.0
732	1.55377e+02	7.32000e+02	2.96219	156.0
742	1.60424e+02	7.42000e+02	2.96176	161.0
752	1.65458e+02	7.52000e+02	2.96124	166.0
762	1.70513e+02	7.62000e+02	2.96074	171.0
772	1.75563e+02	7.72000e+02	2.96025	176.0
782	1.80630e+02	7.82000e+02	2.95952	181.0
792	1.85692e+02	7.92000e+02	2.9585	186.0
802	1.90749e+02	8.02000e+02	2.95714	191.0
812	1.95818e+02	8.12000e+02	2.95512	196.0
822	2.00860e+02	8.22000e+02	2.95256	201.0
832	2.05924e+02	8.32000e+02	2.94971	206.0
842	2.11012e+02	8.42000e+02	2.94636	211.0
852	2.16106e+02	8.52000e+02	2.94272	216.0
862	2.21194e+02	8.62000e+02	2.93897	221.0
872	2.26286e+02	8.72000e+02	2.93522	226.0
882	2.31267e+02	8.82000e+02	2.93159	231.0
892	2.36304e+02	8.92000e+02	2.92763	236.0
902	2.41340e+02	9.02000e+02	2.92296	241.0
912	2.46472e+02	9.12000e+02	2.91845	246.0
922	2.51615e+02	9.22000e+02	2.91379	251.0
932	2.56692e+02	9.32000e+02	2.90883	256.0
942	2.61803e+02	9.42000e+02	2.90378	261.0
952	2.66827e+02	9.52000e+02	2.89877	266.0
962	2.71820e+02	9.62000e+02	2.89308	271.0
972	2.76879e+02	9.72000e+02	2.88736	276.0
982	2.82032e+02	9.82000e+02	2.8814	281.0
992	2.87179e+02	9.92000e+02	2.8736	286.0
1002	2.92384e+02	1.00200e+03	2.86523	291.0
1012	2.97452e+02	1.01200e+03	2.85657	296.0
1022	3.02445e+02	1.02200e+03	2.84641	301.0
1032	3.07539e+02	1.03200e+03	2.83426	306.0
1042	3.12713e+02	1.04200e+03	2.82064	311.0
1052	3.17766e+02	1.05200e+03	2.80535	316.0
1062	3.22826e+02	1.06200e+03	2.78904	321.0
1072	3.27879e+02	1.07200e+03	2.77188	326.0
1082	3.32935e+02	1.08200e+03	2.7536	331.0
1092	3.38112e+02	1.09200e+03	2.73124	336.0
1102	3.43418e+02	1.10200e+03	2.70384	341.0
1112	3.48414e+02	1.11200e+03	2.66784	346.0
1122	3.53191e+02	1.12200e+03	2.61898	351.0
1132	3.58049e+02	1.13200e+03	2.54855	356.0
1142	3.63000e+02	1.14200e+03	2.45114	361.0
1152	3.67834e+02	1.15200e+03	2.31809	366.0
1162	3.72943e+02	1.16200e+03	2.1497	371.0
1172	3.77833e+02	1.17200e+03	1.94437	376.0
1182	3.82824e+02	1.18200e+03	1.70803	381.0
1192	3.87777e+02	1.19200e+03	1.45611	386.0
1202	3.92512e+02	1.20200e+03	1.19977	391.0
1212	3.97398e+02	1.21200e+03	0.9441	396.0
1222	4.02616e+02	1.22200e+03	0.697723	401.0
1232	4.07923e+02	1.23200e+03	0.474835	406.0
1242	4.12937e+02	1.24200e+03	0.296384	411.0
1252	4.18238e+02	1.25200e+03	0.174476	416.0
1262	4.23413e+02	1.26200e+03	0.100547	421.0
1272	4.28659e+02	1.27200e+03	0.0596323	426.0
1282	4.33952e+02	1.28200e+03	0.0369359	431.0
1292	4.39269e+02	1.29200e+03	0.0240818	436.0
1302	4.44206e+02	1.30200e+03	0.0161256	441.0
1312	4.49130e+02	1.31200e+03	0.0111862	446.0
1322	4.54186e+02	1.32200e+03	0.00796583	451.0
1332	4.59407e+02	1.33200e+03	0.00636257	456.0
1342	4.64423e+02	1.34200e+03	0.00569921	461.0
1352	4.69009e+02	1.35200e+03	0.00515859	466.0
1362	4.73831e+02	1.36200e+03	0.00466566	471.0
1372	4.78733e+02	1.37200e+03	0.00462108	476.0
1382	4.83544e+02	1.38200e+03	0.00439166	481.0
1392	4.88519e+02	1.39200e+03	0.00413448	486.0
1402	4.93112e+02	1.40200e+03	0.00384587	491.0
1412	4.97710e+02	1.41200e+03	0.00372433	496.0
1422	5.02612e+02	1.42200e+03	0.00374972	501.0
1432	5.07385e+02	1.43200e+03	0.00358684	506.0
1442	5.11992e+02	1.44200e+03	0.00332749	511.0
1452	5.16648e+02	1.45200e+03	0.00328473	516.0
1462	5.21395e+02	1.46200e+03	0.00329769	521.0
1472	5.26255e+02	1.47200e+03	0.0032693	526.0
1482	5.31051e+02	1.48200e+03	0.00309064	531.0
1492	5.35746e+02	1.49200e+03	0.00293104	536.0
1502	5.40592e+02	1.50200e+03	0.00296029	541.0
1512	5.45410e+02	1.51200e+03	0.00289087	546.0
1522	5.50224e+02	1.52200e+03	0.00277345	551.0
1532	5.55071e+02	1.53200e+03	0.00259518	556.0
1542	5.60005e+02	1.54200e+03	0.00248634	561.0
1552	5.64933e+02	1.55200e+03	0.00237203	566.0
1562	5.69885e+02	1.56200e+03	0.00246915	571.0
1572	5.74840e+02	1.57200e+03	0.00245537	576.0
1582	5.79811e+02	1.58200e+03	0.00244148	581.0
1592	5.84809e+02	1.59200e+03	0.00245079	586.0
1602	5.89774e+02	1.60200e+03	0.00241508	591.0
1612	5.94801e+02	1.61200e+03	0.00233819	596.0
1622	6.00089e+02	1.62200e+03	0.0023838	601.0
1632	6.07050e+02	1.63200e+03	0.00234134	606.0
1642	6.11856e+02	1.64200e+03	0.00223121	611.0
1652	6.16775e+02	1.65200e+03	0.00215594	616.0
1662	6.21729e+02	1.66200e+03	0.0020948	621.0
1672	6.26665e+02	1.67200e+03	0.00203297	626.0
1682	6.31576e+02	1.68200e+03	0.00197084	631.0
1692	6.36493e+02	1.69200e+03	0.00203827	636.0
1702	6.41417e+02	1.70200e+03	0.0018876	641.0
1712	6.46384e+02	1.71200e+03	0.00164227	646.0
1722	6.51360e+02	1.72200e+03	0.00167089	651.0
1732	6.56301e+02	1.73200e+03	0.0015872	656.0
1742	6.61273e+02	1.74200e+03	0.0015385	661.0
1752	6.66229e+02	1.75200e+03	0.00145126	666.0
1762	6.71193e+02	1.76200e+03	0.00148725	671.0
1772	6.76145e+02	1.77200e+03	0.00150562	676.0
1782	6.81043e+02	1.78200e+03	0.00190834	681.0
1792	6.85929e+02	1.79200e+03	0.00158139	686.0
1802	6.89304e+02	1.80200e+03	0.00151524	691.0
1812	6.91954e+02	1.81200e+03	0.0012696	696.0
1822	6.93914e+02	1.82200e+03	0.00135938	700.0
1832	6.95384e+02	1.83200e+03	0.00139439	700.0
1842	6.96499e+02	1.84200e+03	0.00144963	700.0
1852	6.97339e+02	1.85200e+03	0.00137286	700.0
1862	6.98007e+02	1.86200e+03	0.00129957	700.0
1872	6.98513e+02	1.87200e+03	0.00124487	700.0
1882	6.98915e+02	1.88200e+03	0.001209	700.0
1892	6.99215e+02	1.89200e+03	0.00119059	700.0
1902	6.99446e+02	1.90200e+03	0.00121193	700.0
1912	6.99614e+02	1.91200e+03	0.0012338	700.0
1922	6.99713e+02	1.92200e+03	0.00117906	700.0
1932	6.99798e+02	1.93200e+03	0.00121173	700.0
1942	6.99878e+02	1.94200e+03	0.00103854	700.0
1952	6.99941e+02	1.95200e+03	0.00106559	700.0
1962	6.99993e+02	1.96200e+03	0.00126087	700.0
1972	7.00059e+02	1.97200e+03	0.00138489	700.0
1982	7.00081e+02	1.98200e+03	0.00155266	700.0
1992	7.00112e+02	1.99200e+03	0.00126695	700.0
2002	7.00153e+02	2.00200e+03	0.0010148	700.0
2012	7.00167e+02	2.01200e+03	0.00100643	700.0
2022	7.00181e+02	2.02200e+03	0.000970472	700.0
2032	7.00177e+02	2.03200e+03	0.000863793	700.0
2042	7.00201e+02	2.04200e+03	0.00099082	700.0
2052	7.00203e+02	2.05200e+03	0.00110545	700.0
2062	7.00195e+02	2.06200e+03	0.000982364	700.0
2072	7.00192e+02	2.07200e+03	0.00103507	700.0
2082	7.00189e+02	2.08200e+03	0.000920426	700.0
2092	7.00191e+02	2.09200e+03	0.00103509	700.0
2102	7.00188e+02	2.10200e+03	0.00105523	700.0
2112	7.00185e+02	2.11200e+03	0.00098457	700.0
2122	7.00176e+02	2.12200e+03	0.00108909	700.0
2132	7.00158e+02	2.13200e+03	0.00103705	700.0
2142	7.00157e+02	2.14200e+03	0.000846263	700.0
2152	7.00151e+02	2.15200e+03	0.000854568	700.0
2162	7.00146e+02	2.16200e+03	0.000825156	700.0
2172	7.00136e+02	2.17200e+03	0.000811954	700.0
2182	7.00127e+02	2.18200e+03	0.000831358	700.0
2192	7.00115e+02	2.19200e+03	0.000830017	700.0
2202	7.00111e+02	2.20200e+03	0.000768627	700.0
2212	7.00106e+02	2.21200e+03	0.000750716	700.0
2222	7.00093e+02	2.22200e+03	0.000991425	700.0
2232	7.00102e+02	2.23200e+03	0.000689413	700.0
2242	7.00093e+02	2.24200e+03	0.000706686	700.0
2252	7.00081e+02	2.25200e+03	0.000623054	700.0
2262	7.00073e+02	2.26200e+03	0.000601266	700.0
2272	7.00079e+02	2.27200e+03	0.000541919	700.0
2282	7.00066e+02	2.28200e+03	0.000742138	700.0
2292	7.00054e+02	2.29200e+03	0.000722858	700.0
2302	7.00061e+02	2.30200e+03	0.000700062	700.0
2312	7.00062e+02	2.31200e+03	0.000738119	700.0
2322	7.00037e+02	2.32200e+03	0.000733574	700.0
2332	7.00052e+02	2.33200e+03	0.000867384	700.0
2342	7.00049e+02	2.34200e+03	0.000727439	700.0
2352	7.00036e+02	2.35200e+03	0.000622339	700.0
2362	7.00039e+02	2.36200e+03	0.000560017	700.0
2372	7.00043e+02	2.37200e+03	0.000353709	700.0
2382	7.00042e+02	2.38200e+03	0.000579945	700.0
2392	7.00035e+02	2.39200e+03	0.000675297	700.0
2402	7.00024e+02	2.40200e+03	0.000658297	700.0
2412	7.00026e+02	2.41200e+03	0.000579739	700.0
2422	7.00017e+02	2.42200e+03	0.000587992	700.0
2432	7.00014e+02	2.43200e+03	0.000491519	700.0
2442	7.00009e+02	2.44200e+03	0.000460424	700.0
2452	7.00005e+02	2.45200e+03	0.000518287	700.0
2462	7.00003e+02	2.46200e+03	0.000511106	700.0
2472	7.00005e+02	2.47200e+03	0.000608221	700.0
2482	7.00013e+02	2.48200e+03	0.000463428	700.0
2492	7.00007e+02	2.49200e+03	0.000432009	700.0
2502	6.99992e+02	2.50200e+03	0.000482516	700.0
2512	7.00011e+02	2.51200e+03	0.000441691	700.0
2522	7.00009e+02	2.52200e+03	0.000470061	700.0
2532	7.00008e+02	2.53200e+03	0.000573268	700.0
2542	7.00000e+02	2.54200e+03	0.000532802	700.0
2552	7.00010e+02	2.55200e+03	0.000497547	700.0
2562	7.00004e+02	2.56200e+03	0.000609908	700.0
2572	7.00003e+02	2.57200e+03	0.000549225	700.0
2582	7.00012e+02	2.58200e+03	0.000311368	700.0
2592	7.00016e+02	2.59200e+03	0.000341666	700.0
2602	7.00015e+02	2.60200e+03	0.000412478	700.0
2612	7.00011e+02	2.61200e+03	0.000421158	700.0
2622	7.00003e+02	2.62200e+03	0.000459821	700.0
2632	7.00013e+02	2.63200e+03	0.000333979	700.0
2642	7.00007e+02	2.64200e+03	0.00035047	700.0
2652	7.00004e+02	2.65200e+03	0.000413484	700.0
2662	6.99999e+02	2.66200e+03	0.000310883	700.0
2672	6.99992e+02	2.67200e+03	0.000461443	700.0
2682	6.99999e+02	2.68200e+03	0.000387144	700.0
2692	6.99994e+02	2.69200e+03	0.000314031	700.0
2702	6.99998e+02	2.70200e+03	0.000384732	700.0
2712	6.99999e+02	2.71200e+03	0.000443495	700.0
2720	6.99992e+02	2.72000e+03	0.00032006	700.0