File: Experiments/TUBS/tga_nonisotherm/tga_dynamic_n2_dyn10_powder_3mg_r3.txt
index	ts	t	weight	tr
[#]	[°C]	[s]	[mg]	[°C]
843	1.29966e+02	8.43000e+02	3.02592e+00	1.30500e+02
862	1.33154e+02	8.62000e+02	3.02548e+00	1.33667e+02
881	1.36324e+02	8.81000e+02	3.02441e+00	1.36833e+02
900	1.39505e+02	9.00000e+02	3.02368e+00	1.40000e+02
919	1.42698e+02	9.19000e+02	3.02226e+00	1.43167e+02
938	1.45880e+02	9.38000e+02	3.02122e+00	1.46333e+02
957	1.49064e+02	9.57000e+02	3.01918e+00	1.49500e+02
976	1.52265e+02	9.76000e+02	3.01715e+00	1.52667e+02
995	1.55444e+02	9.95000e+02	3.01505e+00	1.55833e+02
1014	1.58635e+02	1.01400e+03	3.01253e+00	1.59000e+02
1033	1.61825e+02	1.03300e+03	3.00972e+00	1.62167e+02
1052	1.65009e+02	1.05200e+03	3.00580e+00	1.65333e+02
1071	1.68212e+02	1.07100e+03	3.00075e+00	1.68500e+02
1090	1.71398e+02	1.09000e+03	2.99358e+00	1.71667e+02
1109	1.74616e+02	1.10900e+03	2.98451e+00	1.74833e+02
1128	1.77788e+02	1.12800e+03	2.97333e+00	1.78000e+02
1147	1.81001e+02	1.14700e+03	2.96052e+00	1.81167e+02
1166	1.84243e+02	1.16600e+03	2.94744e+00	1.84333e+02
1185	1.87515e+02	1.18500e+03	2.93494e+00	1.87500e+02
1204	1.90779e+02	1.20400e+03	2.92432e+00	1.90667e+02
1223	1.94002e+02	1.22300e+03	2.91562e+00	1.93833e+02
1242	1.97221e+02	1.24200e+03	2.90952e+00	1.97000e+02
1261	2.00436e+02	1.26100e+03	2.90514e+00	2.00167e+02
1280	2.03634e+02	1.28000e+03	2.90220e+00	2.03333e+02
1299	2.06852e+02	1.29900e+03	2.89958e+00	2.06500e+02
1318	2.10062e+02	1.31800e+03	2.89707e+00	2.09667e+02
1337	2.13248e+02	1.33700e+03	2.89497e+00	2.12833e+02
1356	2.16422e+02	1.35600e+03	2.89276e+00	2.16000e+02
1375	2.19615e+02	1.37500e+03	2.89030e+00	2.19167e+02
1394	2.22843e+02	1.39400e+03	2.88848e+00	2.22333e+02
1413	2.26072e+02	1.41300e+03	2.88652e+00	2.25500e+02
1432	2.29287e+02	1.43200e+03	2.88506e+00	2.28667e+02
1451	2.32500e+02	1.45100e+03	2.88394e+00	2.31833e+02
1470	2.35695e+02	1.47000e+03	2.88274e+00	2.35000e+02
1489	2.38931e+02	1.48900e+03	2.88152e+00	2.38167e+02
1508	2.42135e+02	1.50800e+03	2.88053e+00	2.41333e+02
1527	2.45368e+02	1.52700e+03	2.87968e+00	2.44500e+02
1546	2.48517e+02	1.54600e+03	2.87845e+00	2.47667e+02
1565	2.51764e+02	1.56500e+03	2.87747e+00	2.50833e+02
1584	2.54966e+02	1.58400e+03	2.87627e+00	2.54000e+02
1603	2.58139e+02	1.60300e+03	2.87509e+00	2.57167e+02
1622	2.61284e+02	1.62200e+03	2.87338e+00	2.60333e+02
1641	2.64392e+02	1.64100e+03	2.87155e+00	2.63500e+02
1660	2.67551e+02	1.66000e+03	2.86934e+00	2.66667e+02
1679	2.70701e+02	1.67900e+03	2.86615e+00	2.69833e+02
1698	2.73846e+02	1.69800e+03	2.86284e+00	2.73000e+02
1717	2.76994e+02	1.71700e+03	2.85813e+00	2.76167e+02
1736	2.80153e+02	1.73600e+03	2.85297e+00	2.79333e+02
1755	2.83301e+02	1.75500e+03	2.84625e+00	2.82500e+02
1774	2.86487e+02	1.77400e+03	2.83848e+00	2.85667e+02
1793	2.89637e+02	1.79300e+03	2.82882e+00	2.88833e+02
1812	2.92791e+02	1.81200e+03	2.81762e+00	2.92000e+02
1831	2.95963e+02	1.83100e+03	2.80516e+00	2.95167e+02
1850	2.99139e+02	1.85000e+03	2.79155e+00	2.98333e+02
1869	3.02294e+02	1.86900e+03	2.77713e+00	3.01500e+02
1888	3.05458e+02	1.88800e+03	2.76218e+00	3.04667e+02
1907	3.08601e+02	1.90700e+03	2.74714e+00	3.07833e+02
1926	3.11750e+02	1.92600e+03	2.73150e+00	3.11000e+02
1945	3.14949e+02	1.94500e+03	2.71495e+00	3.14167e+02
1964	3.18156e+02	1.96400e+03	2.69599e+00	3.17333e+02
1983	3.21319e+02	1.98300e+03	2.67399e+00	3.20500e+02
2002	3.24497e+02	2.00200e+03	2.64726e+00	3.23667e+02
2021	3.27637e+02	2.02100e+03	2.61472e+00	3.26833e+02
2040	3.30789e+02	2.04000e+03	2.57445e+00	3.30000e+02
2059	3.33899e+02	2.05900e+03	2.52478e+00	3.33167e+02
2078	3.37001e+02	2.07800e+03	2.46492e+00	3.36333e+02
2097	3.40103e+02	2.09700e+03	2.39206e+00	3.39500e+02
2116	3.43207e+02	2.11600e+03	2.30559e+00	3.42667e+02
2135	3.46329e+02	2.13500e+03	2.20527e+00	3.45833e+02
2154	3.49463e+02	2.15400e+03	2.09103e+00	3.49000e+02
2173	3.52632e+02	2.17300e+03	1.96391e+00	3.52167e+02
2192	3.55901e+02	2.19200e+03	1.82577e+00	3.55333e+02
2211	3.59342e+02	2.21100e+03	1.67701e+00	3.58500e+02
2230	3.62557e+02	2.23000e+03	1.52137e+00	3.61667e+02
2249	3.65742e+02	2.24900e+03	1.35949e+00	3.64833e+02
2268	3.68991e+02	2.26800e+03	1.19755e+00	3.68000e+02
2287	3.72204e+02	2.28700e+03	1.02819e+00	3.71167e+02
2306	3.75537e+02	2.30600e+03	8.67633e-01	3.74333e+02
2325	3.78888e+02	2.32500e+03	7.18114e-01	3.77500e+02
2344	3.82137e+02	2.34400e+03	5.82733e-01	3.80667e+02
2363	3.85388e+02	2.36300e+03	4.64437e-01	3.83833e+02
2382	3.88599e+02	2.38200e+03	3.63696e-01	3.87000e+02
2401	3.91790e+02	2.40100e+03	2.79939e-01	3.90167e+02
2420	3.94956e+02	2.42000e+03	2.11898e-01	3.93333e+02
2439	3.98137e+02	2.43900e+03	1.57896e-01	3.96500e+02
2458	4.01348e+02	2.45800e+03	1.15916e-01	3.99667e+02
2477	4.04638e+02	2.47700e+03	8.42030e-02	4.02833e+02
2496	4.07742e+02	2.49600e+03	6.12155e-02	4.06000e+02
2515	4.10866e+02	2.51500e+03	4.48963e-02	4.09167e+02
2534	4.14039e+02	2.53400e+03	3.36678e-02	4.12333e+02
2553	4.17204e+02	2.55300e+03	2.60810e-02	4.15500e+02
2572	4.20362e+02	2.57200e+03	2.07431e-02	4.18667e+02
2591	4.23672e+02	2.59100e+03	1.73182e-02	4.21833e+02
2610	4.26857e+02	2.61000e+03	1.46690e-02	4.25000e+02
2629	4.30075e+02	2.62900e+03	1.35028e-02	4.28167e+02
2648	4.33191e+02	2.64800e+03	1.23866e-02	4.31333e+02
2667	4.36298e+02	2.66700e+03	1.16594e-02	4.34500e+02
2686	4.39459e+02	2.68600e+03	1.11827e-02	4.37667e+02
2705	4.42650e+02	2.70500e+03	1.10260e-02	4.40833e+02
2724	4.45801e+02	2.72400e+03	1.09051e-02	4.44000e+02
2743	4.48965e+02	2.74300e+03	1.09166e-02	4.47167e+02
2762	4.52071e+02	2.76200e+03	1.08025e-02	4.50333e+02
2781	4.54872e+02	2.78100e+03	1.04365e-02	4.53500e+02
2800	4.57941e+02	2.80000e+03	1.04507e-02	4.56667e+02
2819	4.61041e+02	2.81900e+03	1.03184e-02	4.59833e+02
2838	4.64164e+02	2.83800e+03	1.02377e-02	4.63000e+02
2857	4.67307e+02	2.85700e+03	1.01813e-02	4.66167e+02
2876	4.70406e+02	2.87600e+03	1.02068e-02	4.69333e+02
2895	4.73528e+02	2.89500e+03	9.99220e-03	4.72500e+02
2914	4.76633e+02	2.91400e+03	1.00431e-02	4.75667e+02
2933	4.79712e+02	2.93300e+03	1.00037e-02	4.78833e+02
2952	4.82825e+02	2.95200e+03	1.00240e-02	4.82000e+02
2971	4.85906e+02	2.97100e+03	9.83137e-03	4.85167e+02
2990	4.89009e+02	2.99000e+03	9.71844e-03	4.88333e+02
3009	4.92121e+02	3.00900e+03	1.00012e-02	4.91500e+02
3028	4.95256e+02	3.02800e+03	1.00967e-02	4.94667e+02
3047	4.98403e+02	3.04700e+03	9.86277e-03	4.97833e+02
3066	5.01516e+02	3.06600e+03	9.81353e-03	5.01000e+02
3085	5.04662e+02	3.08500e+03	9.78512e-03	5.04167e+02
3104	5.07806e+02	3.10400e+03	9.78821e-03	5.07333e+02
3123	5.10927e+02	3.12300e+03	9.65670e-03	5.10500e+02
3142	5.14059e+02	3.14200e+03	9.85694e-03	5.13667e+02
3161	5.17170e+02	3.16100e+03	9.83512e-03	5.16833e+02
3180	5.20281e+02	3.18000e+03	9.82679e-03	5.20000e+02
3199	5.23439e+02	3.19900e+03	9.71636e-03	5.23167e+02
3218	5.26570e+02	3.21800e+03	9.79643e-03	5.26333e+02
3237	5.29711e+02	3.23700e+03	9.63975e-03	5.29500e+02
3256	5.32853e+02	3.25600e+03	9.74320e-03	5.32667e+02
3275	5.35940e+02	3.27500e+03	9.62044e-03	5.35833e+02
3294	5.39060e+02	3.29400e+03	9.58436e-03	5.39000e+02
3313	5.42189e+02	3.31300e+03	9.59609e-03	5.42167e+02
3332	5.45288e+02	3.33200e+03	9.81036e-03	5.45333e+02
3351	5.48393e+02	3.35100e+03	9.59155e-03	5.48500e+02
3370	5.51530e+02	3.37000e+03	9.71111e-03	5.51667e+02
3389	5.54678e+02	3.38900e+03	9.68163e-03	5.54833e+02
3408	5.57838e+02	3.40800e+03	9.40212e-03	5.58000e+02
3427	5.61006e+02	3.42700e+03	9.46335e-03	5.61167e+02
3446	5.64170e+02	3.44600e+03	9.46407e-03	5.64333e+02
3465	5.67296e+02	3.46500e+03	9.53390e-03	5.67500e+02
3484	5.70413e+02	3.48400e+03	9.26796e-03	5.70667e+02
3503	5.73538e+02	3.50300e+03	9.29441e-03	5.73833e+02
3522	5.76648e+02	3.52200e+03	9.09315e-03	5.77000e+02
3541	5.79717e+02	3.54100e+03	9.34743e-03	5.80167e+02
3560	5.82778e+02	3.56000e+03	9.22297e-03	5.83333e+02
3579	5.85885e+02	3.57900e+03	9.15925e-03	5.86500e+02
3598	5.88983e+02	3.59800e+03	9.11849e-03	5.89667e+02
3617	5.92099e+02	3.61700e+03	9.24295e-03	5.92833e+02
3636	5.95233e+02	3.63600e+03	9.35831e-03	5.96000e+02
3655	5.98390e+02	3.65500e+03	9.22464e-03	5.99167e+02
3674	6.01603e+02	3.67400e+03	9.10336e-03	6.02333e+02
3693	6.04772e+02	3.69300e+03	9.14546e-03	6.05500e+02
3712	6.07937e+02	3.71200e+03	9.04926e-03	6.08667e+02
3731	6.11104e+02	3.73100e+03	9.23426e-03	6.11833e+02
3750	6.14324e+02	3.75000e+03	8.98401e-03	6.15000e+02
3769	6.17565e+02	3.76900e+03	9.07483e-03	6.18167e+02
3788	6.20707e+02	3.78800e+03	9.02248e-03	6.21333e+02
3807	6.23882e+02	3.80700e+03	9.07093e-03	6.24500e+02
3826	6.27039e+02	3.82600e+03	8.99939e-03	6.27667e+02
3845	6.30135e+02	3.84500e+03	9.07647e-03	6.30833e+02
3864	6.33192e+02	3.86400e+03	9.10689e-03	6.34000e+02
3883	6.36304e+02	3.88300e+03	9.11139e-03	6.37167e+02
3902	6.39413e+02	3.90200e+03	9.01891e-03	6.40333e+02
3921	6.42519e+02	3.92100e+03	9.11400e-03	6.43500e+02
3940	6.45649e+02	3.94000e+03	9.03844e-03	6.46667e+02
3959	6.48769e+02	3.95900e+03	9.07886e-03	6.49833e+02
3978	6.51907e+02	3.97800e+03	9.06140e-03	6.53000e+02
3997	6.55012e+02	3.99700e+03	9.15506e-03	6.56167e+02
4016	6.58118e+02	4.01600e+03	8.99278e-03	6.59333e+02
4035	6.61245e+02	4.03500e+03	8.97189e-03	6.62500e+02
4054	6.64394e+02	4.05400e+03	8.93130e-03	6.65667e+02
4073	6.67553e+02	4.07300e+03	8.97042e-03	6.68833e+02
4092	6.70707e+02	4.09200e+03	9.07809e-03	6.72000e+02
4111	6.73864e+02	4.11100e+03	9.15562e-03	6.75167e+02
4130	6.77015e+02	4.13000e+03	8.86719e-03	6.78333e+02
4149	6.80181e+02	4.14900e+03	8.84643e-03	6.81500e+02
4168	6.83328e+02	4.16800e+03	8.85158e-03	6.84667e+02
4187	6.86475e+02	4.18700e+03	8.87496e-03	6.87833e+02
4206	6.89629e+02	4.20600e+03	9.18682e-03	6.91000e+02
4225	6.92772e+02	4.22500e+03	9.21401e-03	6.94167e+02
4244	6.95361e+02	4.24400e+03	9.02715e-03	6.97333e+02
4260	6.96705e+02	4.26000e+03	8.99777e-03	7.00000e+02