File: Experiments/TUBS/tga_nonisotherm/tga_dynamic_n2_dyn30_powder_12mg_r1.txt
index	ts	t	weight	tr
[#]	[°C]	[s]	[mg]	[°C]
683	1.31307e+02	6.83000e+02	1.18863e+01	1.31500e+02
689	1.34366e+02	6.89000e+02	1.18855e+01	1.34500e+02
695	1.37423e+02	6.95000e+02	1.18844e+01	1.37500e+02
701	1.40501e+02	7.01000e+02	1.18828e+01	1.40500e+02
707	1.43591e+02	7.07000e+02	1.18809e+01	1.43500e+02
713	1.46568e+02	7.13000e+02	1.18785e+01	1.46500e+02
719	1.49632e+02	7.19000e+02	1.18757e+01	1.49500e+02
725	1.52676e+02	7.25000e+02	1.18720e+01	1.52500e+02
731	1.55737e+02	7.31000e+02	1.18679e+01	1.55500e+02
737	1.58782e+02	7.37000e+02	1.18633e+01	1.58500e+02
743	1.61821e+02	7.43000e+02	1.18581e+01	1.61500e+02
749	1.64886e+02	7.49000e+02	1.18526e+01	1.64500e+02
755	1.67965e+02	7.55000e+02	1.18466e+01	1.67500e+02
761	1.71031e+02	7.61000e+02	1.18396e+01	1.70500e+02
767	1.74088e+02	7.67000e+02	1.18313e+01	1.73500e+02
773	1.77162e+02	7.73000e+02	1.18211e+01	1.76500e+02
779	1.80219e+02	7.79000e+02	1.18085e+01	1.79500e+02
785	1.83271e+02	7.85000e+02	1.17921e+01	1.82500e+02
791	1.86323e+02	7.91000e+02	1.17716e+01	1.85500e+02
797	1.89384e+02	7.97000e+02	1.17454e+01	1.88500e+02
803	1.92447e+02	8.03000e+02	1.17144e+01	1.91500e+02
809	1.95534e+02	8.09000e+02	1.16786e+01	1.94500e+02
815	1.98613e+02	8.15000e+02	1.16401e+01	1.97500e+02
821	2.01717e+02	8.21000e+02	1.16003e+01	2.00500e+02
827	2.04794e+02	8.27000e+02	1.15614e+01	2.03500e+02
833	2.07917e+02	8.33000e+02	1.15257e+01	2.06500e+02
839	2.11024e+02	8.39000e+02	1.14948e+01	2.09500e+02
845	2.14200e+02	8.45000e+02	1.14705e+01	2.12500e+02
851	2.17351e+02	8.51000e+02	1.14518e+01	2.15500e+02
857	2.20471e+02	8.57000e+02	1.14384e+01	2.18500e+02
863	2.23521e+02	8.63000e+02	1.14275e+01	2.21500e+02
869	2.26589e+02	8.69000e+02	1.14183e+01	2.24500e+02
875	2.29665e+02	8.75000e+02	1.14094e+01	2.27500e+02
881	2.32778e+02	8.81000e+02	1.14006e+01	2.30500e+02
887	2.35886e+02	8.87000e+02	1.13915e+01	2.33500e+02
893	2.38986e+02	8.93000e+02	1.13822e+01	2.36500e+02
899	2.42071e+02	8.99000e+02	1.13733e+01	2.39500e+02
905	2.45199e+02	9.05000e+02	1.13649e+01	2.42500e+02
911	2.48332e+02	9.11000e+02	1.13566e+01	2.45500e+02
917	2.51528e+02	9.17000e+02	1.13488e+01	2.48500e+02
923	2.54717e+02	9.23000e+02	1.13418e+01	2.51500e+02
929	2.57892e+02	9.29000e+02	1.13352e+01	2.54500e+02
935	2.61056e+02	9.35000e+02	1.13290e+01	2.57500e+02
941	2.64208e+02	9.41000e+02	1.13231e+01	2.60500e+02
947	2.67403e+02	9.47000e+02	1.13171e+01	2.63500e+02
953	2.70838e+02	9.53000e+02	1.13110e+01	2.66500e+02
959	2.74102e+02	9.59000e+02	1.13044e+01	2.69500e+02
965	2.77157e+02	9.65000e+02	1.12973e+01	2.72500e+02
971	2.80267e+02	9.71000e+02	1.12894e+01	2.75500e+02
977	2.83286e+02	9.77000e+02	1.12799e+01	2.78500e+02
983	2.86218e+02	9.83000e+02	1.12691e+01	2.81500e+02
989	2.89314e+02	9.89000e+02	1.12562e+01	2.84500e+02
995	2.92413e+02	9.95000e+02	1.12408e+01	2.87500e+02
1001	2.95517e+02	1.00100e+03	1.12223e+01	2.90500e+02
1007	2.98548e+02	1.00700e+03	1.11999e+01	2.93500e+02
1013	3.01507e+02	1.01300e+03	1.11733e+01	2.96500e+02
1019	3.04433e+02	1.01900e+03	1.11425e+01	2.99500e+02
1025	3.07347e+02	1.02500e+03	1.11071e+01	3.02500e+02
1031	3.10279e+02	1.03100e+03	1.10675e+01	3.05500e+02
1037	3.13196e+02	1.03700e+03	1.10235e+01	3.08500e+02
1043	3.16070e+02	1.04300e+03	1.09764e+01	3.11500e+02
1049	3.18826e+02	1.04900e+03	1.09266e+01	3.14500e+02
1055	3.21456e+02	1.05500e+03	1.08753e+01	3.17500e+02
1061	3.23972e+02	1.06100e+03	1.08225e+01	3.20500e+02
1067	3.26706e+02	1.06700e+03	1.07680e+01	3.23500e+02
1073	3.29546e+02	1.07300e+03	1.07101e+01	3.26500e+02
1079	3.32439e+02	1.07900e+03	1.06462e+01	3.29500e+02
1085	3.35360e+02	1.08500e+03	1.05727e+01	3.32500e+02
1091	3.38312e+02	1.09100e+03	1.04885e+01	3.35500e+02
1097	3.41264e+02	1.09700e+03	1.03891e+01	3.38500e+02
1103	3.44191e+02	1.10300e+03	1.02733e+01	3.41500e+02
1109	3.47113e+02	1.10900e+03	1.01347e+01	3.44500e+02
1115	3.50019e+02	1.11500e+03	9.97351e+00	3.47500e+02
1121	3.53368e+02	1.12100e+03	9.78469e+00	3.50500e+02
1127	3.56156e+02	1.12700e+03	9.56604e+00	3.53500e+02
1133	3.59004e+02	1.13300e+03	9.31710e+00	3.56500e+02
1139	3.61914e+02	1.13900e+03	9.03721e+00	3.59500e+02
1145	3.64836e+02	1.14500e+03	8.72368e+00	3.62500e+02
1151	3.67717e+02	1.15100e+03	8.38360e+00	3.65500e+02
1157	3.70613e+02	1.15700e+03	8.01759e+00	3.68500e+02
1163	3.73448e+02	1.16300e+03	7.63308e+00	3.71500e+02
1169	3.76330e+02	1.16900e+03	7.23116e+00	3.74500e+02
1175	3.79331e+02	1.17500e+03	6.81422e+00	3.77500e+02
1181	3.82299e+02	1.18100e+03	6.37420e+00	3.80500e+02
1187	3.85287e+02	1.18700e+03	5.91451e+00	3.83500e+02
1193	3.88497e+02	1.19300e+03	5.43111e+00	3.86500e+02
1199	3.91433e+02	1.19900e+03	4.93263e+00	3.89500e+02
1205	3.94309e+02	1.20500e+03	4.42318e+00	3.92500e+02
1211	3.97179e+02	1.21100e+03	3.90389e+00	3.95500e+02
1217	4.00053e+02	1.21700e+03	3.38370e+00	3.98500e+02
1223	4.03020e+02	1.22300e+03	2.86505e+00	4.01500e+02
1229	4.06114e+02	1.22900e+03	2.35460e+00	4.04500e+02
1235	4.09252e+02	1.23500e+03	1.87032e+00	4.07500e+02
1241	4.12644e+02	1.24100e+03	1.44094e+00	4.10500e+02
1247	4.15902e+02	1.24700e+03	1.08660e+00	4.13500e+02
1253	4.19382e+02	1.25300e+03	8.11612e-01	4.16500e+02
1259	4.22735e+02	1.25900e+03	6.02108e-01	4.19500e+02
1265	4.25967e+02	1.26500e+03	4.46126e-01	4.22500e+02
1271	4.29441e+02	1.27100e+03	3.31902e-01	4.25500e+02
1277	4.32254e+02	1.27700e+03	2.54718e-01	4.28500e+02
1283	4.35252e+02	1.28300e+03	2.00046e-01	4.31500e+02
1289	4.38219e+02	1.28900e+03	1.64710e-01	4.34500e+02
1295	4.41127e+02	1.29500e+03	1.40461e-01	4.37500e+02
1301	4.44110e+02	1.30100e+03	1.25083e-01	4.40500e+02
1307	4.47074e+02	1.30700e+03	1.14469e-01	4.43500e+02
1313	4.50039e+02	1.31300e+03	1.07622e-01	4.46500e+02
1319	4.52989e+02	1.31900e+03	1.02886e-01	4.49500e+02
1325	4.55947e+02	1.32500e+03	9.96953e-02	4.52500e+02
1331	4.58845e+02	1.33100e+03	9.75712e-02	4.55500e+02
1337	4.61755e+02	1.33700e+03	9.65295e-02	4.58500e+02
1343	4.64682e+02	1.34300e+03	9.60485e-02	4.61500e+02
1349	4.67614e+02	1.34900e+03	9.59171e-02	4.64500e+02
1355	4.70548e+02	1.35500e+03	9.54207e-02	4.67500e+02
1361	4.73482e+02	1.36100e+03	9.51305e-02	4.70500e+02
1367	4.76416e+02	1.36700e+03	9.51663e-02	4.73500e+02
1373	4.79304e+02	1.37300e+03	9.50315e-02	4.76500e+02
1379	4.82188e+02	1.37900e+03	9.49302e-02	4.79500e+02
1385	4.85083e+02	1.38500e+03	9.47456e-02	4.82500e+02
1391	4.87956e+02	1.39100e+03	9.44728e-02	4.85500e+02
1397	4.90834e+02	1.39700e+03	9.45010e-02	4.88500e+02
1403	4.93715e+02	1.40300e+03	9.45011e-02	4.91500e+02
1409	4.96599e+02	1.40900e+03	9.41988e-02	4.94500e+02
1415	4.99503e+02	1.41500e+03	9.41199e-02	4.97500e+02
1421	5.02409e+02	1.42100e+03	9.38892e-02	5.00500e+02
1427	5.05323e+02	1.42700e+03	9.37189e-02	5.03500e+02
1433	5.08242e+02	1.43300e+03	9.37598e-02	5.06500e+02
1439	5.11162e+02	1.43900e+03	9.37155e-02	5.09500e+02
1445	5.14070e+02	1.44500e+03	9.35704e-02	5.12500e+02
1451	5.16931e+02	1.45100e+03	9.31704e-02	5.15500e+02
1457	5.19800e+02	1.45700e+03	9.32312e-02	5.18500e+02
1463	5.22692e+02	1.46300e+03	9.35830e-02	5.21500e+02
1469	5.25616e+02	1.46900e+03	9.34663e-02	5.24500e+02
1475	5.28610e+02	1.47500e+03	9.32191e-02	5.27500e+02
1481	5.31536e+02	1.48100e+03	9.31388e-02	5.30500e+02
1487	5.34439e+02	1.48700e+03	9.30280e-02	5.33500e+02
1493	5.37344e+02	1.49300e+03	9.28050e-02	5.36500e+02
1499	5.40248e+02	1.49900e+03	9.26621e-02	5.39500e+02
1505	5.43175e+02	1.50500e+03	9.25421e-02	5.42500e+02
1511	5.46162e+02	1.51100e+03	9.24484e-02	5.45500e+02
1517	5.49270e+02	1.51700e+03	9.24235e-02	5.48500e+02
1523	5.52350e+02	1.52300e+03	9.22881e-02	5.51500e+02
1529	5.55155e+02	1.52900e+03	9.19962e-02	5.54500e+02
1535	5.57999e+02	1.53500e+03	9.16236e-02	5.57500e+02
1541	5.60831e+02	1.54100e+03	9.18603e-02	5.60500e+02
1547	5.63726e+02	1.54700e+03	9.18712e-02	5.63500e+02
1553	5.66649e+02	1.55300e+03	9.17044e-02	5.66500e+02
1559	5.69549e+02	1.55900e+03	9.16197e-02	5.69500e+02
1565	5.72456e+02	1.56500e+03	9.14139e-02	5.72500e+02
1571	5.75359e+02	1.57100e+03	9.13652e-02	5.75500e+02
1577	5.78352e+02	1.57700e+03	9.13897e-02	5.78500e+02
1583	5.81335e+02	1.58300e+03	9.13273e-02	5.81500e+02
1589	5.84355e+02	1.58900e+03	9.10979e-02	5.84500e+02
1595	5.87529e+02	1.59500e+03	9.09370e-02	5.87500e+02
1601	5.90557e+02	1.60100e+03	9.10915e-02	5.90500e+02
1607	5.93497e+02	1.60700e+03	9.10402e-02	5.93500e+02
1613	5.96377e+02	1.61300e+03	9.09103e-02	5.96500e+02
1619	5.99329e+02	1.61900e+03	9.08420e-02	5.99500e+02
1625	6.02497e+02	1.62500e+03	9.06877e-02	6.02500e+02
1631	6.07528e+02	1.63100e+03	9.04883e-02	6.05500e+02
1637	6.10199e+02	1.63700e+03	9.04896e-02	6.08500e+02
1643	6.12984e+02	1.64300e+03	9.05540e-02	6.11500e+02
1649	6.15821e+02	1.64900e+03	9.04007e-02	6.14500e+02
1655	6.18695e+02	1.65500e+03	9.03752e-02	6.17500e+02
1661	6.21589e+02	1.66100e+03	9.03511e-02	6.20500e+02
1667	6.24515e+02	1.66700e+03	9.02296e-02	6.23500e+02
1673	6.27410e+02	1.67300e+03	9.02248e-02	6.26500e+02
1679	6.30330e+02	1.67900e+03	9.01874e-02	6.29500e+02
1685	6.33263e+02	1.68500e+03	9.00327e-02	6.32500e+02
1691	6.36173e+02	1.69100e+03	8.99742e-02	6.35500e+02
1697	6.39091e+02	1.69700e+03	8.99167e-02	6.38500e+02
1703	6.42013e+02	1.70300e+03	8.99050e-02	6.41500e+02
1709	6.44940e+02	1.70900e+03	8.98153e-02	6.44500e+02
1715	6.47877e+02	1.71500e+03	8.95640e-02	6.47500e+02
1721	6.50819e+02	1.72100e+03	8.91896e-02	6.50500e+02
1727	6.53766e+02	1.72700e+03	8.90491e-02	6.53500e+02
1733	6.56732e+02	1.73300e+03	8.97115e-02	6.56500e+02
1739	6.59698e+02	1.73900e+03	8.96679e-02	6.59500e+02
1745	6.62654e+02	1.74500e+03	8.90521e-02	6.62500e+02
1751	6.65619e+02	1.75100e+03	8.88490e-02	6.65500e+02
1757	6.68564e+02	1.75700e+03	8.89574e-02	6.68500e+02
1763	6.71504e+02	1.76300e+03	8.88505e-02	6.71500e+02
1769	6.74461e+02	1.76900e+03	8.88281e-02	6.74500e+02
1775	6.77420e+02	1.77500e+03	8.87922e-02	6.77500e+02
1781	6.80395e+02	1.78100e+03	8.85100e-02	6.80500e+02
1787	6.83364e+02	1.78700e+03	8.82174e-02	6.83500e+02
1793	6.86314e+02	1.79300e+03	8.83261e-02	6.86500e+02
1799	6.88112e+02	1.79900e+03	8.88267e-02	6.89500e+02
1805	6.89952e+02	1.80500e+03	8.88233e-02	6.92500e+02
1811	6.91465e+02	1.81100e+03	8.85055e-02	6.95500e+02
1817	6.92745e+02	1.81700e+03	8.85960e-02	6.98500e+02
1820	6.93302e+02	1.82000e+03	8.87575e-02	7.00000e+02