File: Experiments/TUBS/tga_nonisotherm/tga_dynamic_n2_dyn30_piece_12mg_r1.txt
index	ts	t	weight	tr
[#]	[°C]	[s]	[mg]	[°C]
683	1.30550e+02	6.83000e+02	1.19636e+01	1.31500e+02
690	1.34027e+02	6.90000e+02	1.19636e+01	1.35000e+02
697	1.37548e+02	6.97000e+02	1.19636e+01	1.38500e+02
704	1.41054e+02	7.04000e+02	1.19634e+01	1.42000e+02
711	1.44553e+02	7.11000e+02	1.19634e+01	1.45500e+02
718	1.48064e+02	7.18000e+02	1.19632e+01	1.49000e+02
725	1.51590e+02	7.25000e+02	1.19629e+01	1.52500e+02
732	1.55111e+02	7.32000e+02	1.19626e+01	1.56000e+02
739	1.58635e+02	7.39000e+02	1.19623e+01	1.59500e+02
746	1.62179e+02	7.46000e+02	1.19621e+01	1.63000e+02
753	1.65704e+02	7.53000e+02	1.19620e+01	1.66500e+02
760	1.69247e+02	7.60000e+02	1.19616e+01	1.70000e+02
767	1.72784e+02	7.67000e+02	1.19612e+01	1.73500e+02
774	1.76324e+02	7.74000e+02	1.19599e+01	1.77000e+02
781	1.79886e+02	7.81000e+02	1.19588e+01	1.80500e+02
788	1.83435e+02	7.88000e+02	1.19598e+01	1.84000e+02
795	1.86987e+02	7.95000e+02	1.19590e+01	1.87500e+02
802	1.90529e+02	8.02000e+02	1.19573e+01	1.91000e+02
809	1.94098e+02	8.09000e+02	1.19542e+01	1.94500e+02
816	1.97647e+02	8.16000e+02	1.19531e+01	1.98000e+02
823	2.01172e+02	8.23000e+02	1.19505e+01	2.01500e+02
830	2.04695e+02	8.30000e+02	1.19465e+01	2.05000e+02
837	2.08274e+02	8.37000e+02	1.19400e+01	2.08500e+02
844	2.11845e+02	8.44000e+02	1.19365e+01	2.12000e+02
851	2.15410e+02	8.51000e+02	1.19325e+01	2.15500e+02
858	2.18982e+02	8.58000e+02	1.19271e+01	2.19000e+02
865	2.22552e+02	8.65000e+02	1.19216e+01	2.22500e+02
872	2.26155e+02	8.72000e+02	1.19161e+01	2.26000e+02
879	2.29793e+02	8.79000e+02	1.19102e+01	2.29500e+02
886	2.33366e+02	8.86000e+02	1.19041e+01	2.33000e+02
893	2.36924e+02	8.93000e+02	1.18966e+01	2.36500e+02
900	2.40484e+02	9.00000e+02	1.18899e+01	2.40000e+02
907	2.44067e+02	9.07000e+02	1.18844e+01	2.43500e+02
914	2.47679e+02	9.14000e+02	1.18775e+01	2.47000e+02
921	2.51265e+02	9.21000e+02	1.18700e+01	2.50500e+02
928	2.54882e+02	9.28000e+02	1.18625e+01	2.54000e+02
935	2.58509e+02	9.35000e+02	1.18545e+01	2.57500e+02
942	2.62205e+02	9.42000e+02	1.18462e+01	2.61000e+02
949	2.65764e+02	9.49000e+02	1.18374e+01	2.64500e+02
956	2.69366e+02	9.56000e+02	1.18266e+01	2.68000e+02
963	2.72919e+02	9.63000e+02	1.18189e+01	2.71500e+02
970	2.76481e+02	9.70000e+02	1.18098e+01	2.75000e+02
977	2.80079e+02	9.77000e+02	1.17994e+01	2.78500e+02
984	2.83660e+02	9.84000e+02	1.17881e+01	2.82000e+02
991	2.87194e+02	9.91000e+02	1.17760e+01	2.85500e+02
998	2.90761e+02	9.98000e+02	1.17597e+01	2.89000e+02
1005	2.94329e+02	1.00500e+03	1.17355e+01	2.92500e+02
1012	2.97904e+02	1.01200e+03	1.17125e+01	2.96000e+02
1019	3.01459e+02	1.01900e+03	1.16920e+01	2.99500e+02
1026	3.05016e+02	1.02600e+03	1.16711e+01	3.03000e+02
1033	3.08585e+02	1.03300e+03	1.16467e+01	3.06500e+02
1040	3.12128e+02	1.04000e+03	1.16195e+01	3.10000e+02
1047	3.15721e+02	1.04700e+03	1.15895e+01	3.13500e+02
1054	3.19297e+02	1.05400e+03	1.15570e+01	3.17000e+02
1061	3.22861e+02	1.06100e+03	1.15206e+01	3.20500e+02
1068	3.26383e+02	1.06800e+03	1.14777e+01	3.24000e+02
1075	3.29995e+02	1.07500e+03	1.14314e+01	3.27500e+02
1082	3.33517e+02	1.08200e+03	1.13812e+01	3.31000e+02
1089	3.37027e+02	1.08900e+03	1.13253e+01	3.34500e+02
1096	3.40544e+02	1.09600e+03	1.12634e+01	3.38000e+02
1103	3.44048e+02	1.10300e+03	1.11907e+01	3.41500e+02
1110	3.47547e+02	1.11000e+03	1.11086e+01	3.45000e+02
1117	3.51019e+02	1.11700e+03	1.10048e+01	3.48500e+02
1124	3.54492e+02	1.12400e+03	1.08590e+01	3.52000e+02
1131	3.57899e+02	1.13100e+03	1.06744e+01	3.55500e+02
1138	3.61329e+02	1.13800e+03	1.04543e+01	3.59000e+02
1145	3.64807e+02	1.14500e+03	1.01779e+01	3.62500e+02
1152	3.68260e+02	1.15200e+03	9.85270e+00	3.66000e+02
1159	3.71609e+02	1.15900e+03	9.48226e+00	3.69500e+02
1166	3.74983e+02	1.16600e+03	9.05965e+00	3.73000e+02
1173	3.78390e+02	1.17300e+03	8.59697e+00	3.76500e+02
1180	3.81738e+02	1.18000e+03	8.08981e+00	3.80000e+02
1187	3.85101e+02	1.18700e+03	7.55156e+00	3.83500e+02
1194	3.88488e+02	1.19400e+03	6.98458e+00	3.87000e+02
1201	3.91849e+02	1.20100e+03	6.39516e+00	3.90500e+02
1208	3.95205e+02	1.20800e+03	5.77894e+00	3.94000e+02
1215	3.98461e+02	1.21500e+03	5.12807e+00	3.97500e+02
1222	4.01838e+02	1.22200e+03	4.43508e+00	4.01000e+02
1229	4.05189e+02	1.22900e+03	3.73133e+00	4.04500e+02
1236	4.08596e+02	1.23600e+03	2.99157e+00	4.08000e+02
1243	4.12260e+02	1.24300e+03	2.24640e+00	4.11500e+02
1250	4.15999e+02	1.25000e+03	1.56186e+00	4.15000e+02
1257	4.19908e+02	1.25700e+03	1.03187e+00	4.18500e+02
1264	4.23848e+02	1.26400e+03	6.60092e-01	4.22000e+02
1271	4.27689e+02	1.27100e+03	4.05968e-01	4.25500e+02
1278	4.31406e+02	1.27800e+03	2.46431e-01	4.29000e+02
1285	4.35077e+02	1.28500e+03	1.51515e-01	4.32500e+02
1292	4.38816e+02	1.29200e+03	9.57065e-02	4.36000e+02
1299	4.42513e+02	1.29900e+03	6.13112e-02	4.39500e+02
1306	4.46102e+02	1.30600e+03	4.04167e-02	4.43000e+02
1313	4.49703e+02	1.31300e+03	2.65811e-02	4.46500e+02
1320	4.53403e+02	1.32000e+03	1.96471e-02	4.50000e+02
1327	4.57346e+02	1.32700e+03	1.43671e-02	4.53500e+02
1334	4.60942e+02	1.33400e+03	1.09705e-02	4.57000e+02
1341	4.64842e+02	1.34100e+03	9.45809e-03	4.60500e+02
1348	4.68361e+02	1.34800e+03	8.72607e-03	4.64000e+02
1355	4.71908e+02	1.35500e+03	8.22270e-03	4.67500e+02
1362	4.75312e+02	1.36200e+03	7.88362e-03	4.71000e+02
1369	4.78712e+02	1.36900e+03	7.75847e-03	4.74500e+02
1376	4.82182e+02	1.37600e+03	7.52401e-03	4.78000e+02
1383	4.85552e+02	1.38300e+03	7.31970e-03	4.81500e+02
1390	4.89029e+02	1.39000e+03	7.16254e-03	4.85000e+02
1397	4.92491e+02	1.39700e+03	6.99550e-03	4.88500e+02
1404	4.95940e+02	1.40400e+03	6.79883e-03	4.92000e+02
1411	4.99409e+02	1.41100e+03	6.50994e-03	4.95500e+02
1418	5.02856e+02	1.41800e+03	6.39241e-03	4.99000e+02
1425	5.06332e+02	1.42500e+03	6.19874e-03	5.02500e+02
1432	5.09829e+02	1.43200e+03	6.11148e-03	5.06000e+02
1439	5.13187e+02	1.43900e+03	6.06206e-03	5.09500e+02
1446	5.16684e+02	1.44600e+03	5.78741e-03	5.13000e+02
1453	5.20223e+02	1.45300e+03	5.43932e-03	5.16500e+02
1460	5.23658e+02	1.46000e+03	5.84602e-03	5.20000e+02
1467	5.27189e+02	1.46700e+03	5.77071e-03	5.23500e+02
1474	5.30744e+02	1.47400e+03	5.45787e-03	5.27000e+02
1481	5.34151e+02	1.48100e+03	5.18834e-03	5.30500e+02
1488	5.37450e+02	1.48800e+03	-7.41481e-03	5.34000e+02
1495	5.40810e+02	1.49500e+03	-2.67865e-02	5.37500e+02
1502	5.44264e+02	1.50200e+03	-2.43438e-02	5.41000e+02
1509	5.47748e+02	1.50900e+03	-1.77283e-02	5.44500e+02
1516	5.51235e+02	1.51600e+03	-1.25540e-02	5.48000e+02
1523	5.54864e+02	1.52300e+03	-8.91604e-03	5.51500e+02
1530	5.58512e+02	1.53000e+03	-6.55701e-03	5.55000e+02
1537	5.60890e+02	1.53700e+03	-5.06331e-03	5.58500e+02
1544	5.63712e+02	1.54400e+03	-3.59354e-03	5.62000e+02
1551	5.67011e+02	1.55100e+03	-2.81293e-03	5.65500e+02
1558	5.70402e+02	1.55800e+03	-2.29190e-03	5.69000e+02
1565	5.73809e+02	1.56500e+03	-2.03899e-03	5.72500e+02
1572	5.77216e+02	1.57200e+03	-1.89140e-03	5.76000e+02
1579	5.80619e+02	1.57900e+03	-1.71391e-03	5.79500e+02
1586	5.84044e+02	1.58600e+03	-1.61648e-03	5.83000e+02
1593	5.87505e+02	1.59300e+03	-1.51084e-03	5.86500e+02
1600	5.90952e+02	1.60000e+03	-1.47004e-03	5.90000e+02
1607	5.94438e+02	1.60700e+03	-1.55986e-03	5.93500e+02
1614	5.97890e+02	1.61400e+03	-1.50707e-03	5.97000e+02
1621	6.01231e+02	1.62100e+03	-1.57493e-03	6.00500e+02
1628	6.04711e+02	1.62800e+03	-1.68513e-03	6.04000e+02
1635	6.08103e+02	1.63500e+03	-1.70561e-03	6.07500e+02
1642	6.11603e+02	1.64200e+03	-1.77160e-03	6.11000e+02
1649	6.15067e+02	1.64900e+03	-1.88445e-03	6.14500e+02
1656	6.18550e+02	1.65600e+03	-2.05890e-03	6.18000e+02
1663	6.22023e+02	1.66300e+03	-2.07618e-03	6.21500e+02
1670	6.25495e+02	1.67000e+03	-2.06398e-03	6.25000e+02
1677	6.28964e+02	1.67700e+03	-2.29333e-03	6.28500e+02
1684	6.32460e+02	1.68400e+03	-2.38679e-03	6.32000e+02
1691	6.36035e+02	1.69100e+03	-2.42612e-03	6.35500e+02
1698	6.39529e+02	1.69800e+03	-2.40305e-03	6.39000e+02
1705	6.42990e+02	1.70500e+03	-2.42646e-03	6.42500e+02
1712	6.46461e+02	1.71200e+03	-2.52774e-03	6.46000e+02
1719	6.49933e+02	1.71900e+03	-2.67186e-03	6.49500e+02
1726	6.53351e+02	1.72600e+03	-2.97893e-03	6.53000e+02
1733	6.56814e+02	1.73300e+03	-2.45254e-03	6.56500e+02
1740	6.60244e+02	1.74000e+03	-2.53247e-03	6.60000e+02
1747	6.63683e+02	1.74700e+03	-2.89029e-03	6.63500e+02
1754	6.67131e+02	1.75400e+03	-2.97716e-03	6.67000e+02
1761	6.70567e+02	1.76100e+03	-2.96812e-03	6.70500e+02
1768	6.73998e+02	1.76800e+03	-3.19388e-03	6.74000e+02
1775	6.77424e+02	1.77500e+03	-3.20153e-03	6.77500e+02
1782	6.80875e+02	1.78200e+03	-3.18459e-03	6.81000e+02
1789	6.84330e+02	1.78900e+03	-3.48589e-03	6.84500e+02
1796	6.87159e+02	1.79600e+03	-3.21693e-03	6.88000e+02
1803	6.89401e+02	1.80300e+03	-2.98711e-03	6.91500e+02
1810	6.91242e+02	1.81000e+03	-3.26412e-03	6.95000e+02
1817	6.92713e+02	1.81700e+03	-3.17154e-03	6.98500e+02
1820	6.93249e+02	1.82000e+03	-3.10899e-03	7.00000e+02