File: Experiments/TUBS/tga_nonisotherm/tga_dynamic_n2_dyn60_powder_2mg_r2.txt
index	ts	t	weight	tr
[#]	[°C]	[s]	[mg]	[°C]
643	1.30516e+02	6.43000e+02	2.00881e+00	1.33000e+02
646	1.33545e+02	6.46000e+02	2.00867e+00	1.36000e+02
649	1.36576e+02	6.49000e+02	2.00853e+00	1.39000e+02
652	1.39584e+02	6.52000e+02	2.00839e+00	1.42000e+02
655	1.42598e+02	6.55000e+02	2.00821e+00	1.45000e+02
658	1.45610e+02	6.58000e+02	2.00797e+00	1.48000e+02
661	1.48613e+02	6.61000e+02	2.00762e+00	1.51000e+02
664	1.51615e+02	6.64000e+02	2.00717e+00	1.54000e+02
667	1.54622e+02	6.67000e+02	2.00661e+00	1.57000e+02
670	1.57615e+02	6.70000e+02	2.00591e+00	1.60000e+02
673	1.60619e+02	6.73000e+02	2.00511e+00	1.63000e+02
676	1.63634e+02	6.76000e+02	2.00422e+00	1.66000e+02
679	1.66626e+02	6.79000e+02	2.00323e+00	1.69000e+02
682	1.69615e+02	6.82000e+02	2.00209e+00	1.72000e+02
685	1.72616e+02	6.85000e+02	2.00085e+00	1.75000e+02
688	1.75615e+02	6.88000e+02	1.99948e+00	1.78000e+02
691	1.78606e+02	6.91000e+02	1.99793e+00	1.81000e+02
694	1.81608e+02	6.94000e+02	1.99601e+00	1.84000e+02
697	1.84600e+02	6.97000e+02	1.99367e+00	1.87000e+02
700	1.87617e+02	7.00000e+02	1.99083e+00	1.90000e+02
703	1.90622e+02	7.03000e+02	1.98748e+00	1.93000e+02
706	1.93631e+02	7.06000e+02	1.98337e+00	1.96000e+02
709	1.96632e+02	7.09000e+02	1.97868e+00	1.99000e+02
712	1.99627e+02	7.12000e+02	1.97351e+00	2.02000e+02
715	2.02642e+02	7.15000e+02	1.96807e+00	2.05000e+02
718	2.05660e+02	7.18000e+02	1.96247e+00	2.08000e+02
721	2.08671e+02	7.21000e+02	1.95709e+00	2.11000e+02
724	2.11682e+02	7.24000e+02	1.95217e+00	2.14000e+02
727	2.14690e+02	7.27000e+02	1.94778e+00	2.17000e+02
730	2.17689e+02	7.30000e+02	1.94427e+00	2.20000e+02
733	2.20712e+02	7.33000e+02	1.94143e+00	2.23000e+02
736	2.23740e+02	7.36000e+02	1.93914e+00	2.26000e+02
739	2.26820e+02	7.39000e+02	1.93718e+00	2.29000e+02
742	2.29881e+02	7.42000e+02	1.93557e+00	2.32000e+02
745	2.32901e+02	7.45000e+02	1.93408e+00	2.35000e+02
748	2.35933e+02	7.48000e+02	1.93260e+00	2.38000e+02
751	2.38943e+02	7.51000e+02	1.93113e+00	2.41000e+02
754	2.41974e+02	7.54000e+02	1.92963e+00	2.44000e+02
757	2.45000e+02	7.57000e+02	1.92810e+00	2.47000e+02
760	2.48047e+02	7.60000e+02	1.92654e+00	2.50000e+02
763	2.51070e+02	7.63000e+02	1.92497e+00	2.53000e+02
766	2.54097e+02	7.66000e+02	1.92343e+00	2.56000e+02
769	2.57116e+02	7.69000e+02	1.92194e+00	2.59000e+02
772	2.60202e+02	7.72000e+02	1.92053e+00	2.62000e+02
775	2.63233e+02	7.75000e+02	1.91915e+00	2.65000e+02
778	2.66273e+02	7.78000e+02	1.91779e+00	2.68000e+02
781	2.69314e+02	7.81000e+02	1.91645e+00	2.71000e+02
784	2.72359e+02	7.84000e+02	1.91517e+00	2.74000e+02
787	2.75409e+02	7.87000e+02	1.91390e+00	2.77000e+02
790	2.78460e+02	7.90000e+02	1.91260e+00	2.80000e+02
793	2.81531e+02	7.93000e+02	1.91125e+00	2.83000e+02
796	2.84592e+02	7.96000e+02	1.90977e+00	2.86000e+02
799	2.87670e+02	7.99000e+02	1.90810e+00	2.89000e+02
802	2.90706e+02	8.02000e+02	1.90605e+00	2.92000e+02
805	2.93768e+02	8.05000e+02	1.90359e+00	2.95000e+02
808	2.96804e+02	8.08000e+02	1.90066e+00	2.98000e+02
811	2.99851e+02	8.11000e+02	1.89728e+00	3.01000e+02
814	3.02906e+02	8.14000e+02	1.89316e+00	3.04000e+02
817	3.05931e+02	8.17000e+02	1.88832e+00	3.07000e+02
820	3.08987e+02	8.20000e+02	1.88271e+00	3.10000e+02
823	3.12045e+02	8.23000e+02	1.87642e+00	3.13000e+02
826	3.15074e+02	8.26000e+02	1.86924e+00	3.16000e+02
829	3.18120e+02	8.29000e+02	1.86150e+00	3.19000e+02
832	3.21167e+02	8.32000e+02	1.85326e+00	3.22000e+02
835	3.24227e+02	8.35000e+02	1.84471e+00	3.25000e+02
838	3.27261e+02	8.38000e+02	1.83581e+00	3.28000e+02
841	3.30320e+02	8.41000e+02	1.82671e+00	3.31000e+02
844	3.33362e+02	8.44000e+02	1.81731e+00	3.34000e+02
847	3.36402e+02	8.47000e+02	1.80738e+00	3.37000e+02
850	3.39454e+02	8.50000e+02	1.79625e+00	3.40000e+02
853	3.42549e+02	8.53000e+02	1.78349e+00	3.43000e+02
856	3.45653e+02	8.56000e+02	1.76861e+00	3.46000e+02
859	3.48729e+02	8.59000e+02	1.75144e+00	3.49000e+02
862	3.51791e+02	8.62000e+02	1.73035e+00	3.52000e+02
865	3.54889e+02	8.65000e+02	1.70550e+00	3.55000e+02
868	3.57899e+02	8.68000e+02	1.67636e+00	3.58000e+02
871	3.60955e+02	8.71000e+02	1.64314e+00	3.61000e+02
874	3.63995e+02	8.74000e+02	1.60355e+00	3.64000e+02
877	3.67276e+02	8.77000e+02	1.55865e+00	3.67000e+02
880	3.70545e+02	8.80000e+02	1.50844e+00	3.70000e+02
883	3.73596e+02	8.83000e+02	1.45363e+00	3.73000e+02
886	3.76572e+02	8.86000e+02	1.39214e+00	3.76000e+02
889	3.79505e+02	8.89000e+02	1.32578e+00	3.79000e+02
892	3.82488e+02	8.92000e+02	1.25472e+00	3.82000e+02
895	3.85418e+02	8.95000e+02	1.17960e+00	3.85000e+02
898	3.88333e+02	8.98000e+02	1.09877e+00	3.88000e+02
901	3.91271e+02	9.01000e+02	1.01399e+00	3.91000e+02
904	3.94216e+02	9.04000e+02	9.26067e-01	3.94000e+02
907	3.97235e+02	9.07000e+02	8.36702e-01	3.97000e+02
910	4.00191e+02	9.10000e+02	7.46682e-01	4.00000e+02
913	4.03101e+02	9.13000e+02	6.57936e-01	4.03000e+02
916	4.05996e+02	9.16000e+02	5.71598e-01	4.06000e+02
919	4.08975e+02	9.19000e+02	4.88305e-01	4.09000e+02
922	4.12119e+02	9.22000e+02	4.10884e-01	4.12000e+02
925	4.15246e+02	9.25000e+02	3.38645e-01	4.15000e+02
928	4.18462e+02	9.28000e+02	2.73788e-01	4.18000e+02
931	4.21822e+02	9.31000e+02	2.16244e-01	4.21000e+02
934	4.24969e+02	9.34000e+02	1.68506e-01	4.24000e+02
937	4.28037e+02	9.37000e+02	1.28702e-01	4.27000e+02
940	4.30845e+02	9.40000e+02	9.55169e-02	4.30000e+02
943	4.33969e+02	9.43000e+02	6.74149e-02	4.33000e+02
946	4.37070e+02	9.46000e+02	4.63459e-02	4.36000e+02
949	4.39987e+02	9.49000e+02	2.98818e-02	4.39000e+02
952	4.42888e+02	9.52000e+02	1.73724e-02	4.42000e+02
955	4.45785e+02	9.55000e+02	7.69156e-03	4.45000e+02
958	4.48726e+02	9.58000e+02	1.38696e-03	4.48000e+02
961	4.51644e+02	9.61000e+02	-3.23104e-03	4.51000e+02
964	4.54538e+02	9.64000e+02	-6.56930e-03	4.54000e+02
967	4.57427e+02	9.67000e+02	-9.02024e-03	4.57000e+02
970	4.60357e+02	9.70000e+02	-1.04589e-02	4.60000e+02
973	4.63354e+02	9.73000e+02	-1.14528e-02	4.63000e+02
976	4.66385e+02	9.76000e+02	-1.21675e-02	4.66000e+02
979	4.69417e+02	9.79000e+02	-1.26684e-02	4.69000e+02
982	4.72515e+02	9.82000e+02	-1.29480e-02	4.72000e+02
985	4.75504e+02	9.85000e+02	-1.31586e-02	4.75000e+02
988	4.78409e+02	9.88000e+02	-1.33493e-02	4.78000e+02
991	4.81457e+02	9.91000e+02	-1.35342e-02	4.81000e+02
994	4.84500e+02	9.94000e+02	-1.36864e-02	4.84000e+02
997	4.87447e+02	9.97000e+02	-1.37788e-02	4.87000e+02
1000	4.90263e+02	1.00000e+03	-1.38279e-02	4.90000e+02
1003	4.93079e+02	1.00300e+03	-1.38467e-02	4.93000e+02
1006	4.95963e+02	1.00600e+03	-1.38473e-02	4.96000e+02
1009	4.98949e+02	1.00900e+03	-1.38675e-02	4.99000e+02
1012	5.01923e+02	1.01200e+03	-1.39158e-02	5.02000e+02
1015	5.04850e+02	1.01500e+03	-1.39760e-02	5.05000e+02
1018	5.07779e+02	1.01800e+03	-1.40281e-02	5.08000e+02
1021	5.10777e+02	1.02100e+03	-1.40442e-02	5.11000e+02
1024	5.13912e+02	1.02400e+03	-1.40660e-02	5.14000e+02
1027	5.17052e+02	1.02700e+03	-1.41058e-02	5.17000e+02
1030	5.19970e+02	1.03000e+03	-1.41631e-02	5.20000e+02
1033	5.22915e+02	1.03300e+03	-1.42097e-02	5.23000e+02
1036	5.25878e+02	1.03600e+03	-1.42421e-02	5.26000e+02
1039	5.28863e+02	1.03900e+03	-1.42676e-02	5.29000e+02
1042	5.31741e+02	1.04200e+03	-1.42898e-02	5.32000e+02
1045	5.34635e+02	1.04500e+03	-1.43241e-02	5.35000e+02
1048	5.37442e+02	1.04800e+03	-1.43701e-02	5.38000e+02
1051	5.40302e+02	1.05100e+03	-1.44063e-02	5.41000e+02
1054	5.43271e+02	1.05400e+03	-1.44497e-02	5.44000e+02
1057	5.46119e+02	1.05700e+03	-1.45143e-02	5.47000e+02
1060	5.48901e+02	1.06000e+03	-1.45504e-02	5.50000e+02
1063	5.51792e+02	1.06300e+03	-1.45455e-02	5.53000e+02
1066	5.54679e+02	1.06600e+03	-1.44832e-02	5.56000e+02
1069	5.57579e+02	1.06900e+03	-1.44203e-02	5.59000e+02
1072	5.60911e+02	1.07200e+03	-1.43907e-02	5.62000e+02
1075	5.63377e+02	1.07500e+03	-1.43976e-02	5.65000e+02
1078	5.66031e+02	1.07800e+03	-1.44315e-02	5.68000e+02
1081	5.68792e+02	1.08100e+03	-1.44554e-02	5.71000e+02
1084	5.71641e+02	1.08400e+03	-1.44746e-02	5.74000e+02
1087	5.74534e+02	1.08700e+03	-1.44788e-02	5.77000e+02
1090	5.77469e+02	1.09000e+03	-1.44790e-02	5.80000e+02
1093	5.80450e+02	1.09300e+03	-1.44902e-02	5.83000e+02
1096	5.83487e+02	1.09600e+03	-1.44893e-02	5.86000e+02
1099	5.86398e+02	1.09900e+03	-1.44818e-02	5.89000e+02
1102	5.89357e+02	1.10200e+03	-1.44813e-02	5.92000e+02
1105	5.92046e+02	1.10500e+03	-1.44989e-02	5.95000e+02
1108	5.94966e+02	1.10800e+03	-1.45186e-02	5.98000e+02
1111	5.97888e+02	1.11100e+03	-1.45297e-02	6.01000e+02
1114	6.00624e+02	1.11400e+03	-1.45465e-02	6.04000e+02
1117	6.03625e+02	1.11700e+03	-1.45776e-02	6.07000e+02
1120	6.06573e+02	1.12000e+03	-1.45948e-02	6.10000e+02
1123	6.09711e+02	1.12300e+03	-1.45970e-02	6.13000e+02
1126	6.12766e+02	1.12600e+03	-1.45917e-02	6.16000e+02
1129	6.15809e+02	1.12900e+03	-1.45951e-02	6.19000e+02
1132	6.18835e+02	1.13200e+03	-1.45905e-02	6.22000e+02
1135	6.21766e+02	1.13500e+03	-1.46007e-02	6.25000e+02
1138	6.24816e+02	1.13800e+03	-1.46127e-02	6.28000e+02
1141	6.27867e+02	1.14100e+03	-1.45974e-02	6.31000e+02
1144	6.30888e+02	1.14400e+03	-1.45986e-02	6.34000e+02
1147	6.33981e+02	1.14700e+03	-1.46259e-02	6.37000e+02
1150	6.37009e+02	1.15000e+03	-1.46374e-02	6.40000e+02
1153	6.39978e+02	1.15300e+03	-1.45972e-02	6.43000e+02
1156	6.43025e+02	1.15600e+03	-1.45832e-02	6.46000e+02
1159	6.46096e+02	1.15900e+03	-1.45839e-02	6.49000e+02
1162	6.49092e+02	1.16200e+03	-1.46123e-02	6.52000e+02
1165	6.52169e+02	1.16500e+03	-1.46394e-02	6.55000e+02
1168	6.55002e+02	1.16800e+03	-1.46333e-02	6.58000e+02
1171	6.57675e+02	1.17100e+03	-1.46187e-02	6.61000e+02
1174	6.60515e+02	1.17400e+03	-1.46002e-02	6.64000e+02
1177	6.63383e+02	1.17700e+03	-1.45990e-02	6.67000e+02
1180	6.66240e+02	1.18000e+03	-1.46399e-02	6.70000e+02
1183	6.69186e+02	1.18300e+03	-1.46852e-02	6.73000e+02
1186	6.70908e+02	1.18600e+03	-1.46515e-02	6.76000e+02
1189	6.72962e+02	1.18900e+03	-1.44739e-02	6.79000e+02
1192	6.75044e+02	1.19200e+03	-1.43136e-02	6.82000e+02
1195	6.76868e+02	1.19500e+03	-1.42509e-02	6.85000e+02
1198	6.78569e+02	1.19800e+03	-1.43337e-02	6.88000e+02
1201	6.80137e+02	1.20100e+03	-1.44364e-02	6.91000e+02
1204	6.81536e+02	1.20400e+03	-1.45147e-02	6.94000e+02
1207	6.82881e+02	1.20700e+03	-1.45704e-02	6.97000e+02
1210	6.84146e+02	1.21000e+03	-1.45877e-02	7.00000e+02