File: Experiments/TUBS/tga_nonisotherm/tga_dynamic_n2low20_dyn30_powder_3mg_r1.txt
Index	Ts	t	Weight	Tr
[#]	[°C]	[s]	[mg]	[°C]
681	1.30453e+02	6.81000e+02	3.02804	130.5
691	1.35488e+02	6.91000e+02	3.02758	135.5
701	1.40524e+02	7.01000e+02	3.02699	140.5
711	1.45572e+02	7.11000e+02	3.02576	145.5
721	1.50610e+02	7.21000e+02	3.02477	150.5
731	1.55670e+02	7.31000e+02	3.02269	155.5
741	1.60715e+02	7.41000e+02	3.02055	160.5
751	1.65775e+02	7.51000e+02	3.01828	165.5
761	1.70843e+02	7.61000e+02	3.01591	170.5
771	1.75903e+02	7.71000e+02	3.01294	175.5
781	1.80972e+02	7.81000e+02	3.00932	180.5
791	1.86063e+02	7.91000e+02	3.00474	185.5
801	1.91138e+02	8.01000e+02	2.99768	190.5
811	1.96229e+02	8.11000e+02	2.98837	195.5
821	2.01319e+02	8.21000e+02	2.97771	200.5
831	2.06411e+02	8.31000e+02	2.96807	205.5
841	2.11516e+02	8.41000e+02	2.96079	210.5
851	2.16629e+02	8.51000e+02	2.95608	215.5
861	2.21729e+02	8.61000e+02	2.95276	220.5
871	2.26850e+02	8.71000e+02	2.9499	225.5
881	2.31952e+02	8.81000e+02	2.94674	230.5
891	2.37039e+02	8.91000e+02	2.94342	235.5
901	2.42085e+02	9.01000e+02	2.93972	240.5
911	2.47146e+02	9.11000e+02	2.9361	245.5
921	2.52288e+02	9.21000e+02	2.93291	250.5
931	2.57446e+02	9.31000e+02	2.92972	255.5
941	2.62682e+02	9.41000e+02	2.92665	260.5
951	2.67913e+02	9.51000e+02	2.9238	265.5
961	2.73050e+02	9.61000e+02	2.9205	270.5
971	2.78209e+02	9.71000e+02	2.91688	275.5
981	2.83230e+02	9.81000e+02	2.91227	280.5
991	2.88583e+02	9.91000e+02	2.90621	285.5
1001	2.93778e+02	1.00100e+03	2.8976	290.5
1011	2.98889e+02	1.01100e+03	2.88615	295.5
1021	3.03949e+02	1.02100e+03	2.87084	300.5
1031	3.09028e+02	1.03100e+03	2.85214	305.5
1041	3.14102e+02	1.04100e+03	2.83028	310.5
1051	3.19221e+02	1.05100e+03	2.80647	315.5
1061	3.24219e+02	1.06100e+03	2.78175	320.5
1071	3.29304e+02	1.07100e+03	2.75555	325.5
1081	3.34684e+02	1.08100e+03	2.72447	330.5
1091	3.39837e+02	1.09100e+03	2.6843	335.5
1101	3.44655e+02	1.10100e+03	2.62974	340.5
1111	3.49237e+02	1.11100e+03	2.55735	345.5
1121	3.54380e+02	1.12100e+03	2.46231	350.5
1131	3.59062e+02	1.13100e+03	2.34306	355.5
1141	3.63889e+02	1.14100e+03	2.19706	360.5
1151	3.68792e+02	1.15100e+03	2.0278	365.5
1161	3.73948e+02	1.16100e+03	1.83663	370.5
1171	3.78978e+02	1.17100e+03	1.62679	375.5
1181	3.83828e+02	1.18100e+03	1.40364	380.5
1191	3.88956e+02	1.19100e+03	1.1783	385.5
1201	3.93979e+02	1.20100e+03	0.961456	390.5
1211	3.98838e+02	1.21100e+03	0.75342	395.5
1221	4.04078e+02	1.22100e+03	0.561584	400.5
1231	4.09485e+02	1.23100e+03	0.397784	405.5
1241	4.14850e+02	1.24100e+03	0.277115	410.5
1251	4.20014e+02	1.25100e+03	0.192437	415.5
1261	4.24861e+02	1.26100e+03	0.138759	420.5
1271	4.30230e+02	1.27100e+03	0.10667	425.5
1281	4.35149e+02	1.28100e+03	0.0898644	430.5
1291	4.40453e+02	1.29100e+03	0.0810252	435.5
1301	4.45596e+02	1.30100e+03	0.0764349	440.5
1311	4.50344e+02	1.31100e+03	0.073421	445.5
1321	4.54934e+02	1.32100e+03	0.0719958	450.5
1331	4.59590e+02	1.33100e+03	0.0711698	455.5
1341	4.64275e+02	1.34100e+03	0.0708144	460.5
1351	4.69145e+02	1.35100e+03	0.0706817	465.5
1361	4.73911e+02	1.36100e+03	0.0701939	470.5
1371	4.78865e+02	1.37100e+03	0.0701436	475.5
1381	4.83693e+02	1.38100e+03	0.0701288	480.5
1391	4.88503e+02	1.39100e+03	0.0700331	485.5
1401	4.93824e+02	1.40100e+03	0.06972	490.5
1411	4.98835e+02	1.41100e+03	0.069454	495.5
1421	5.03789e+02	1.42100e+03	0.0693958	500.5
1431	5.08806e+02	1.43100e+03	0.0692933	505.5
1441	5.13650e+02	1.44100e+03	0.0694159	510.5
1451	5.18413e+02	1.45100e+03	0.0694036	515.5
1461	5.23289e+02	1.46100e+03	0.0692659	520.5
1471	5.28296e+02	1.47100e+03	0.0690838	525.5
1481	5.33596e+02	1.48100e+03	0.0691839	530.5
1491	5.38588e+02	1.49100e+03	0.0692411	535.5
1501	5.43274e+02	1.50100e+03	0.0690926	540.5
1511	5.47808e+02	1.51100e+03	0.0692322	545.5
1521	5.52701e+02	1.52100e+03	0.0692471	550.5
1531	5.57653e+02	1.53100e+03	0.0692081	555.5
1541	5.62508e+02	1.54100e+03	0.0691436	560.5
1551	5.67387e+02	1.55100e+03	0.0689851	565.5
1561	5.72367e+02	1.56100e+03	0.0688194	570.5
1571	5.77596e+02	1.57100e+03	0.0687709	575.5
1581	5.82773e+02	1.58100e+03	0.0688369	580.5
1591	5.87649e+02	1.59100e+03	0.0686959	585.5
1601	5.92502e+02	1.60100e+03	0.0685452	590.5
1611	5.97325e+02	1.61100e+03	0.0685673	595.5
1621	6.02705e+02	1.62100e+03	0.0689165	600.5
1631	6.08064e+02	1.63100e+03	0.0688143	605.5
1641	6.12845e+02	1.64100e+03	0.0683888	610.5
1651	6.17759e+02	1.65100e+03	0.0686758	615.5
1661	6.22863e+02	1.66100e+03	0.068702	620.5
1671	6.27939e+02	1.67100e+03	0.0687002	625.5
1681	6.32831e+02	1.68100e+03	0.0683909	630.5
1691	6.37636e+02	1.69100e+03	0.0685273	635.5
1701	6.42460e+02	1.70100e+03	0.0683252	640.5
1711	6.47320e+02	1.71100e+03	0.0681413	645.5
1721	6.52275e+02	1.72100e+03	0.0682171	650.5
1731	6.57208e+02	1.73100e+03	0.0681682	655.5
1741	6.62149e+02	1.74100e+03	0.0679084	660.5
1751	6.67092e+02	1.75100e+03	0.0678804	665.5
1761	6.71949e+02	1.76100e+03	0.0680819	670.5
1771	6.76866e+02	1.77100e+03	0.0679218	675.5
1781	6.81795e+02	1.78100e+03	0.0680386	680.5
1791	6.86733e+02	1.79100e+03	0.0680186	685.5
1801	6.90336e+02	1.80100e+03	0.0681774	690.5
1811	6.93199e+02	1.81100e+03	0.0680568	695.5
1821	6.95316e+02	1.82100e+03	0.0681408	700.0
1831	6.96912e+02	1.83100e+03	0.0681613	700.0
1841	6.98059e+02	1.84100e+03	0.0680464	700.0
1851	6.98864e+02	1.85100e+03	0.0681167	700.0
1861	6.99486e+02	1.86100e+03	0.0680652	700.0
1871	6.99964e+02	1.87100e+03	0.0679165	700.0
1881	7.00307e+02	1.88100e+03	0.0677968	700.0
1891	7.00551e+02	1.89100e+03	0.0680699	700.0
1901	7.00764e+02	1.90100e+03	0.0681885	700.0
1911	7.00932e+02	1.91100e+03	0.0679841	700.0
1921	7.01058e+02	1.92100e+03	0.0678345	700.0
1931	7.01129e+02	1.93100e+03	0.0679034	700.0
1941	7.01191e+02	1.94100e+03	0.0681635	700.0
1951	7.01249e+02	1.95100e+03	0.0680832	700.0
1961	7.01273e+02	1.96100e+03	0.0681193	700.0
1971	7.01305e+02	1.97100e+03	0.0681111	700.0
1981	7.01340e+02	1.98100e+03	0.0679751	700.0
1991	7.01352e+02	1.99100e+03	0.0678371	700.0
2001	7.01375e+02	2.00100e+03	0.0679632	700.0
2011	7.01370e+02	2.01100e+03	0.0679723	700.0
2021	7.01388e+02	2.02100e+03	0.0680422	700.0
2031	7.01388e+02	2.03100e+03	0.0679769	700.0
2041	7.01381e+02	2.04100e+03	0.0680352	700.0
2051	7.01380e+02	2.05100e+03	0.0680444	700.0
2061	7.01372e+02	2.06100e+03	0.0680417	700.0
2071	7.01362e+02	2.07100e+03	0.0680387	700.0
2081	7.01349e+02	2.08100e+03	0.0678433	700.0
2091	7.01344e+02	2.09100e+03	0.0679622	700.0
2101	7.01335e+02	2.10100e+03	0.0680636	700.0
2111	7.01325e+02	2.11100e+03	0.0678687	700.0
2121	7.01312e+02	2.12100e+03	0.0677823	700.0
2131	7.01305e+02	2.13100e+03	0.0676624	700.0
2141	7.01287e+02	2.14100e+03	0.0678	700.0
2151	7.01266e+02	2.15100e+03	0.0677065	700.0
2161	7.01256e+02	2.16100e+03	0.0676514	700.0
2171	7.01238e+02	2.17100e+03	0.0679649	700.0
2181	7.01234e+02	2.18100e+03	0.0678573	700.0
2191	7.01223e+02	2.19100e+03	0.0678422	700.0
2201	7.01211e+02	2.20100e+03	0.067895	700.0
2211	7.01195e+02	2.21100e+03	0.0679908	700.0
2221	7.01183e+02	2.22100e+03	0.0680239	700.0
2231	7.01165e+02	2.23100e+03	0.0680189	700.0
2241	7.01161e+02	2.24100e+03	0.0679268	700.0
2251	7.01141e+02	2.25100e+03	0.0678303	700.0
2261	7.01126e+02	2.26100e+03	0.0677537	700.0
2271	7.01123e+02	2.27100e+03	0.06777	700.0
2281	7.01116e+02	2.28100e+03	0.0676696	700.0
2291	7.01095e+02	2.29100e+03	0.0677526	700.0
2301	7.01099e+02	2.30100e+03	0.0676293	700.0
2311	7.01082e+02	2.31100e+03	0.0678113	700.0
2321	7.01057e+02	2.32100e+03	0.0676839	700.0
2331	7.01059e+02	2.33100e+03	0.0676244	700.0
2341	7.01039e+02	2.34100e+03	0.0675816	700.0
2351	7.01030e+02	2.35100e+03	0.0676012	700.0
2361	7.01022e+02	2.36100e+03	0.0676089	700.0
2371	7.01022e+02	2.37100e+03	0.0677283	700.0
2381	7.01005e+02	2.38100e+03	0.0676673	700.0
2391	7.01004e+02	2.39100e+03	0.0675165	700.0
2401	7.00989e+02	2.40100e+03	0.067407	700.0
2411	7.00993e+02	2.41100e+03	0.0675563	700.0
2421	7.00975e+02	2.42100e+03	0.0676238	700.0
2431	7.00963e+02	2.43100e+03	0.0671271	700.0
2441	7.00955e+02	2.44100e+03	0.0675188	700.0
2451	7.00960e+02	2.45100e+03	0.0676606	700.0
2461	7.00944e+02	2.46100e+03	0.0675162	700.0
2471	7.00945e+02	2.47100e+03	0.0674205	700.0
2481	7.00939e+02	2.48100e+03	0.0675103	700.0
2491	7.00935e+02	2.49100e+03	0.0675054	700.0
2501	7.00923e+02	2.50100e+03	0.0675204	700.0
2511	7.00926e+02	2.51100e+03	0.0674834	700.0
2521	7.00913e+02	2.52100e+03	0.067526	700.0
2531	7.00901e+02	2.53100e+03	0.0675909	700.0
2541	7.00895e+02	2.54100e+03	0.067592	700.0
2551	7.00891e+02	2.55100e+03	0.0673637	700.0
2561	7.00877e+02	2.56100e+03	0.0674154	700.0
2571	7.00878e+02	2.57100e+03	0.0673339	700.0
2581	7.00863e+02	2.58100e+03	0.0673253	700.0
2591	7.00859e+02	2.59100e+03	0.0673646	700.0
2601	7.00862e+02	2.60100e+03	0.0673112	700.0
2611	7.00855e+02	2.61100e+03	0.0672956	700.0
2621	7.00843e+02	2.62100e+03	0.067238	700.0
2631	7.00842e+02	2.63100e+03	0.0672963	700.0
2641	7.00828e+02	2.64100e+03	0.0674378	700.0
2651	7.00839e+02	2.65100e+03	0.0675766	700.0
2661	7.00830e+02	2.66100e+03	0.0674664	700.0
2671	7.00817e+02	2.67100e+03	0.0673019	700.0
2681	7.00814e+02	2.68100e+03	0.0672895	700.0
2691	7.00814e+02	2.69100e+03	0.0675466	700.0
2701	7.00814e+02	2.70100e+03	0.06749	700.0
2711	7.00819e+02	2.71100e+03	0.0673716	700.0
2720	7.00805e+02	2.72000e+03	0.0671956	700.0