File: Experiments/TUBS/tga_nonisotherm/tga_dynamic_n2_dyn5_powder_3mg_r2.txt
index	ts	t	weight	tr
[#]	[°C]	[s]	[mg]	[°C]
1083	1.30983e+02	1.08300e+03	3.00260e+00	1.30250e+02
1120	1.34097e+02	1.12000e+03	3.00143e+00	1.33333e+02
1157	1.37202e+02	1.15700e+03	3.00029e+00	1.36417e+02
1194	1.40340e+02	1.19400e+03	2.99890e+00	1.39500e+02
1231	1.43456e+02	1.23100e+03	2.99708e+00	1.42583e+02
1268	1.46575e+02	1.26800e+03	2.99525e+00	1.45667e+02
1305	1.49691e+02	1.30500e+03	2.99296e+00	1.48750e+02
1342	1.52792e+02	1.34200e+03	2.99031e+00	1.51833e+02
1379	1.55910e+02	1.37900e+03	2.98726e+00	1.54917e+02
1416	1.59030e+02	1.41600e+03	2.98297e+00	1.58000e+02
1453	1.62140e+02	1.45300e+03	2.97735e+00	1.61083e+02
1490	1.65254e+02	1.49000e+03	2.96944e+00	1.64167e+02
1527	1.68364e+02	1.52700e+03	2.95926e+00	1.67250e+02
1564	1.71491e+02	1.56400e+03	2.94678e+00	1.70333e+02
1601	1.74595e+02	1.60100e+03	2.93272e+00	1.73417e+02
1638	1.77717e+02	1.63800e+03	2.91842e+00	1.76500e+02
1675	1.80832e+02	1.67500e+03	2.90559e+00	1.79583e+02
1712	1.83954e+02	1.71200e+03	2.89467e+00	1.82667e+02
1749	1.87078e+02	1.74900e+03	2.88665e+00	1.85750e+02
1786	1.90196e+02	1.78600e+03	2.88091e+00	1.88833e+02
1823	1.93290e+02	1.82300e+03	2.87725e+00	1.91917e+02
1860	1.96393e+02	1.86000e+03	2.87453e+00	1.95000e+02
1897	1.99515e+02	1.89700e+03	2.87195e+00	1.98083e+02
1934	2.02598e+02	1.93400e+03	2.86996e+00	2.01167e+02
1971	2.05709e+02	1.97100e+03	2.86782e+00	2.04250e+02
2008	2.08802e+02	2.00800e+03	2.86582e+00	2.07333e+02
2045	2.11875e+02	2.04500e+03	2.86421e+00	2.10417e+02
2082	2.14953e+02	2.08200e+03	2.86282e+00	2.13500e+02
2119	2.18033e+02	2.11900e+03	2.86169e+00	2.16583e+02
2156	2.21102e+02	2.15600e+03	2.86057e+00	2.19667e+02
2193	2.24195e+02	2.19300e+03	2.85966e+00	2.22750e+02
2230	2.27282e+02	2.23000e+03	2.85896e+00	2.25833e+02
2267	2.30358e+02	2.26700e+03	2.85810e+00	2.28917e+02
2304	2.33448e+02	2.30400e+03	2.85730e+00	2.32000e+02
2341	2.36547e+02	2.34100e+03	2.85640e+00	2.35083e+02
2378	2.39648e+02	2.37800e+03	2.85551e+00	2.38167e+02
2415	2.42744e+02	2.41500e+03	2.85461e+00	2.41250e+02
2452	2.45843e+02	2.45200e+03	2.85331e+00	2.44333e+02
2489	2.48944e+02	2.48900e+03	2.85210e+00	2.47417e+02
2526	2.52019e+02	2.52600e+03	2.85061e+00	2.50500e+02
2563	2.55109e+02	2.56300e+03	2.84893e+00	2.53583e+02
2600	2.58202e+02	2.60000e+03	2.84674e+00	2.56667e+02
2637	2.61268e+02	2.63700e+03	2.84409e+00	2.59750e+02
2674	2.64368e+02	2.67400e+03	2.84126e+00	2.62833e+02
2711	2.67454e+02	2.71100e+03	2.83734e+00	2.65917e+02
2748	2.70543e+02	2.74800e+03	2.83256e+00	2.69000e+02
2785	2.73643e+02	2.78500e+03	2.82679e+00	2.72083e+02
2822	2.76736e+02	2.82200e+03	2.81989e+00	2.75167e+02
2859	2.79818e+02	2.85900e+03	2.81130e+00	2.78250e+02
2896	2.82908e+02	2.89600e+03	2.80128e+00	2.81333e+02
2933	2.86006e+02	2.93300e+03	2.78963e+00	2.84417e+02
2970	2.89118e+02	2.97000e+03	2.77672e+00	2.87500e+02
3007	2.92251e+02	3.00700e+03	2.76253e+00	2.90583e+02
3044	2.95348e+02	3.04400e+03	2.74743e+00	2.93667e+02
3081	2.98439e+02	3.08100e+03	2.73232e+00	2.96750e+02
3118	3.01570e+02	3.11800e+03	2.71661e+00	2.99833e+02
3155	3.04721e+02	3.15500e+03	2.70042e+00	3.02917e+02
3192	3.07857e+02	3.19200e+03	2.68305e+00	3.06000e+02
3229	3.11017e+02	3.22900e+03	2.66385e+00	3.09083e+02
3266	3.14131e+02	3.26600e+03	2.64180e+00	3.12167e+02
3303	3.17200e+02	3.30300e+03	2.61545e+00	3.15250e+02
3340	3.20289e+02	3.34000e+03	2.58322e+00	3.18333e+02
3377	3.23371e+02	3.37700e+03	2.54382e+00	3.21417e+02
3414	3.26454e+02	3.41400e+03	2.49535e+00	3.24500e+02
3451	3.29532e+02	3.45100e+03	2.43566e+00	3.27583e+02
3488	3.32637e+02	3.48800e+03	2.36375e+00	3.30667e+02
3525	3.35794e+02	3.52500e+03	2.27794e+00	3.33750e+02
3562	3.38888e+02	3.56200e+03	2.17776e+00	3.36833e+02
3599	3.41985e+02	3.59900e+03	2.06307e+00	3.39917e+02
3636	3.45033e+02	3.63600e+03	1.93540e+00	3.43000e+02
3673	3.48071e+02	3.67300e+03	1.79605e+00	3.46083e+02
3710	3.51114e+02	3.71000e+03	1.64607e+00	3.49167e+02
3747	3.54212e+02	3.74700e+03	1.48918e+00	3.52250e+02
3784	3.57255e+02	3.78400e+03	1.33014e+00	3.55333e+02
3821	3.60335e+02	3.82100e+03	1.16585e+00	3.58417e+02
3858	3.63516e+02	3.85800e+03	1.00426e+00	3.61500e+02
3895	3.66726e+02	3.89500e+03	8.47643e-01	3.64583e+02
3932	3.69988e+02	3.93200e+03	7.02897e-01	3.67667e+02
3969	3.73128e+02	3.96900e+03	5.73547e-01	3.70750e+02
4006	3.76192e+02	4.00600e+03	4.60457e-01	3.73833e+02
4043	3.79380e+02	4.04300e+03	3.63932e-01	3.76917e+02
4080	3.82528e+02	4.08000e+03	2.83651e-01	3.80000e+02
4117	3.85635e+02	4.11700e+03	2.18375e-01	3.83083e+02
4154	3.88738e+02	4.15400e+03	1.66415e-01	3.86167e+02
4191	3.91824e+02	4.19100e+03	1.26522e-01	3.89250e+02
4228	3.94865e+02	4.22800e+03	9.67382e-02	3.92333e+02
4265	3.97957e+02	4.26500e+03	7.56576e-02	3.95417e+02
4302	4.01004e+02	4.30200e+03	6.05899e-02	3.98500e+02
4339	4.03969e+02	4.33900e+03	5.00316e-02	4.01583e+02
4376	4.06955e+02	4.37600e+03	4.25962e-02	4.04667e+02
4413	4.09971e+02	4.41300e+03	3.77562e-02	4.07750e+02
4450	4.13052e+02	4.45000e+03	3.43309e-02	4.10833e+02
4487	4.16105e+02	4.48700e+03	3.19889e-02	4.13917e+02
4524	4.19159e+02	4.52400e+03	3.06222e-02	4.17000e+02
4561	4.22276e+02	4.56100e+03	2.95511e-02	4.20083e+02
4598	4.25364e+02	4.59800e+03	2.88562e-02	4.23167e+02
4635	4.28695e+02	4.63500e+03	2.84579e-02	4.26250e+02
4672	4.31280e+02	4.67200e+03	2.85307e-02	4.29333e+02
4709	4.34260e+02	4.70900e+03	2.81306e-02	4.32417e+02
4746	4.37283e+02	4.74600e+03	2.78178e-02	4.35500e+02
4783	4.40333e+02	4.78300e+03	2.77525e-02	4.38583e+02
4820	4.43369e+02	4.82000e+03	2.69493e-02	4.41667e+02
4857	4.46365e+02	4.85700e+03	2.76412e-02	4.44750e+02
4894	4.49365e+02	4.89400e+03	2.74089e-02	4.47833e+02
4931	4.52356e+02	4.93100e+03	2.71184e-02	4.50917e+02
4968	4.55384e+02	4.96800e+03	2.70374e-02	4.54000e+02
5005	4.58380e+02	5.00500e+03	2.69016e-02	4.57083e+02
5042	4.61420e+02	5.04200e+03	2.69559e-02	4.60167e+02
5079	4.64461e+02	5.07900e+03	2.67172e-02	4.63250e+02
5116	4.67486e+02	5.11600e+03	2.66235e-02	4.66333e+02
5153	4.70513e+02	5.15300e+03	2.66823e-02	4.69417e+02
5190	4.73539e+02	5.19000e+03	2.65084e-02	4.72500e+02
5227	4.76552e+02	5.22700e+03	2.65909e-02	4.75583e+02
5264	4.79563e+02	5.26400e+03	2.64755e-02	4.78667e+02
5301	4.82518e+02	5.30100e+03	2.63620e-02	4.81750e+02
5338	4.85460e+02	5.33800e+03	2.65109e-02	4.84833e+02
5375	4.88447e+02	5.37500e+03	2.63916e-02	4.87917e+02
5412	4.91450e+02	5.41200e+03	2.64109e-02	4.91000e+02
5449	4.94510e+02	5.44900e+03	2.63195e-02	4.94083e+02
5486	4.97515e+02	5.48600e+03	2.62744e-02	4.97167e+02
5523	5.00519e+02	5.52300e+03	2.61466e-02	5.00250e+02
5560	5.03567e+02	5.56000e+03	2.62477e-02	5.03333e+02
5597	5.06644e+02	5.59700e+03	2.61639e-02	5.06417e+02
5634	5.09761e+02	5.63400e+03	2.61567e-02	5.09500e+02
5671	5.12816e+02	5.67100e+03	2.61223e-02	5.12583e+02
5708	5.15907e+02	5.70800e+03	2.60576e-02	5.15667e+02
5745	5.18918e+02	5.74500e+03	2.60023e-02	5.18750e+02
5782	5.21974e+02	5.78200e+03	2.58823e-02	5.21833e+02
5819	5.25065e+02	5.81900e+03	2.58283e-02	5.24917e+02
5856	5.28190e+02	5.85600e+03	2.58501e-02	5.28000e+02
5893	5.31264e+02	5.89300e+03	2.57490e-02	5.31083e+02
5930	5.34314e+02	5.93000e+03	2.57821e-02	5.34167e+02
5967	5.37382e+02	5.96700e+03	2.58560e-02	5.37250e+02
6004	5.40426e+02	6.00400e+03	2.55515e-02	5.40333e+02
6041	5.43417e+02	6.04100e+03	2.54948e-02	5.43417e+02
6078	5.46466e+02	6.07800e+03	2.54685e-02	5.46500e+02
6115	5.49516e+02	6.11500e+03	2.54353e-02	5.49583e+02
6152	5.52585e+02	6.15200e+03	2.54025e-02	5.52667e+02
6189	5.55647e+02	6.18900e+03	2.53858e-02	5.55750e+02
6226	5.58708e+02	6.22600e+03	2.53153e-02	5.58833e+02
6263	5.61757e+02	6.26300e+03	2.52163e-02	5.61917e+02
6300	5.64816e+02	6.30000e+03	2.52413e-02	5.65000e+02
6337	5.67923e+02	6.33700e+03	2.52094e-02	5.68083e+02
6374	5.71028e+02	6.37400e+03	2.51923e-02	5.71167e+02
6411	5.74019e+02	6.41100e+03	2.53054e-02	5.74250e+02
6448	5.77013e+02	6.44800e+03	2.51841e-02	5.77333e+02
6485	5.80033e+02	6.48500e+03	2.50927e-02	5.80417e+02
6522	5.83081e+02	6.52200e+03	2.51534e-02	5.83500e+02
6559	5.86137e+02	6.55900e+03	2.52219e-02	5.86583e+02
6596	5.89177e+02	6.59600e+03	2.50791e-02	5.89667e+02
6633	5.92238e+02	6.63300e+03	2.50644e-02	5.92750e+02
6670	5.95342e+02	6.67000e+03	2.50264e-02	5.95833e+02
6707	5.98392e+02	6.70700e+03	2.50068e-02	5.98917e+02
6744	6.01475e+02	6.74400e+03	2.50982e-02	6.02000e+02
6781	6.04532e+02	6.78100e+03	2.48995e-02	6.05083e+02
6818	6.07572e+02	6.81800e+03	2.48513e-02	6.08167e+02
6855	6.10647e+02	6.85500e+03	2.48484e-02	6.11250e+02
6892	6.13689e+02	6.89200e+03	2.49700e-02	6.14333e+02
6929	6.16761e+02	6.92900e+03	2.46549e-02	6.17417e+02
6966	6.19835e+02	6.96600e+03	2.46908e-02	6.20500e+02
7003	6.22909e+02	7.00300e+03	2.47168e-02	6.23583e+02
7040	6.25978e+02	7.04000e+03	2.46390e-02	6.26667e+02
7077	6.29032e+02	7.07700e+03	2.45505e-02	6.29750e+02
7114	6.32097e+02	7.11400e+03	2.45248e-02	6.32833e+02
7151	6.35152e+02	7.15100e+03	2.44806e-02	6.35917e+02
7188	6.38221e+02	7.18800e+03	2.43890e-02	6.39000e+02
7225	6.41282e+02	7.22500e+03	2.42933e-02	6.42083e+02
7262	6.44363e+02	7.26200e+03	2.43301e-02	6.45167e+02
7299	6.47438e+02	7.29900e+03	2.42935e-02	6.48250e+02
7336	6.50517e+02	7.33600e+03	2.42351e-02	6.51333e+02
7373	6.53601e+02	7.37300e+03	2.41743e-02	6.54417e+02
7410	6.56708e+02	7.41000e+03	2.41381e-02	6.57500e+02
7447	6.59789e+02	7.44700e+03	2.40794e-02	6.60583e+02
7484	6.62896e+02	7.48400e+03	2.39917e-02	6.63667e+02
7521	6.65990e+02	7.52100e+03	2.41585e-02	6.66750e+02
7558	6.69100e+02	7.55800e+03	2.42899e-02	6.69833e+02
7595	6.72208e+02	7.59500e+03	2.41614e-02	6.72917e+02
7632	6.75302e+02	7.63200e+03	2.39389e-02	6.76000e+02
7669	6.78421e+02	7.66900e+03	2.40284e-02	6.79083e+02
7706	6.81535e+02	7.70600e+03	2.39253e-02	6.82167e+02
7743	6.84651e+02	7.74300e+03	2.37220e-02	6.85250e+02
7780	6.87765e+02	7.78000e+03	2.37481e-02	6.88333e+02
7817	6.90838e+02	7.81700e+03	2.37628e-02	6.91417e+02
7854	6.93925e+02	7.85400e+03	2.37982e-02	6.94500e+02
7891	6.97006e+02	7.89100e+03	2.37631e-02	6.97583e+02
7920	6.98461e+02	7.92000e+03	2.36498e-02	7.00000e+02