File: Experiments/TUBS/tga_nonisotherm/tga_dynamic_n2low20_dyn30_powder_3mg_r2.txt
Index	Ts	t	Weight	Tr
[#]	[°C]	[s]	[mg]	[°C]
680	1.30283e+02	6.80000e+02	2.99793	130.0
690	1.35353e+02	6.90000e+02	2.99744	135.0
700	1.40459e+02	7.00000e+02	2.99697	140.0
710	1.45533e+02	7.10000e+02	2.99564	145.0
720	1.50601e+02	7.20000e+02	2.99464	150.0
730	1.55669e+02	7.30000e+02	2.99251	155.0
740	1.60765e+02	7.40000e+02	2.99039	160.0
750	1.65840e+02	7.50000e+02	2.98816	165.0
760	1.70952e+02	7.60000e+02	2.98572	170.0
770	1.76019e+02	7.70000e+02	2.98291	175.0
780	1.81127e+02	7.80000e+02	2.97943	180.0
790	1.86215e+02	7.90000e+02	2.97538	185.0
800	1.91321e+02	8.00000e+02	2.96977	190.0
810	1.96424e+02	8.10000e+02	2.96207	195.0
820	2.01532e+02	8.20000e+02	2.95307	200.0
830	2.06628e+02	8.30000e+02	2.94465	205.0
840	2.11745e+02	8.40000e+02	2.93815	210.0
850	2.16881e+02	8.50000e+02	2.93406	215.0
860	2.21980e+02	8.60000e+02	2.931	220.0
870	2.27094e+02	8.70000e+02	2.92838	225.0
880	2.32263e+02	8.80000e+02	2.92563	230.0
890	2.37421e+02	8.90000e+02	2.92238	235.0
900	2.42606e+02	9.00000e+02	2.91908	240.0
910	2.47775e+02	9.10000e+02	2.91572	245.0
920	2.52898e+02	9.20000e+02	2.91238	250.0
930	2.57917e+02	9.30000e+02	2.90923	255.0
940	2.62988e+02	9.40000e+02	2.90637	260.0
950	2.68069e+02	9.50000e+02	2.90342	265.0
960	2.73129e+02	9.60000e+02	2.90008	270.0
970	2.78195e+02	9.70000e+02	2.89647	275.0
980	2.83273e+02	9.80000e+02	2.89198	280.0
990	2.88351e+02	9.90000e+02	2.88591	285.0
1000	2.93366e+02	1.00000e+03	2.87709	290.0
1010	2.98446e+02	1.01000e+03	2.86535	295.0
1020	3.03524e+02	1.02000e+03	2.84959	300.0
1030	3.08569e+02	1.03000e+03	2.83004	305.0
1040	3.13683e+02	1.04000e+03	2.80676	310.0
1050	3.18701e+02	1.05000e+03	2.78118	315.0
1060	3.23682e+02	1.06000e+03	2.75456	320.0
1070	3.28525e+02	1.07000e+03	2.72598	325.0
1080	3.33491e+02	1.08000e+03	2.69229	330.0
1090	3.38452e+02	1.09000e+03	2.64948	335.0
1100	3.43429e+02	1.10000e+03	2.59345	340.0
1110	3.48776e+02	1.11000e+03	2.51993	345.0
1120	3.53893e+02	1.12000e+03	2.42422	350.0
1130	3.59179e+02	1.13000e+03	2.30373	355.0
1140	3.64179e+02	1.14000e+03	2.15598	360.0
1150	3.69102e+02	1.15000e+03	1.98405	365.0
1160	3.73959e+02	1.16000e+03	1.78966	370.0
1170	3.78868e+02	1.17000e+03	1.5762	375.0
1180	3.83812e+02	1.18000e+03	1.34874	380.0
1190	3.88739e+02	1.19000e+03	1.11599	385.0
1200	3.93788e+02	1.20000e+03	0.894207	390.0
1210	3.98959e+02	1.21000e+03	0.678134	395.0
1220	4.03959e+02	1.22000e+03	0.482917	400.0
1230	4.08945e+02	1.23000e+03	0.323341	405.0
1240	4.14225e+02	1.24000e+03	0.204085	410.0
1250	4.19262e+02	1.25000e+03	0.119216	415.0
1260	4.24601e+02	1.26000e+03	0.0635141	420.0
1270	4.29649e+02	1.27000e+03	0.0296092	425.0
1280	4.34650e+02	1.28000e+03	0.0113192	430.0
1290	4.39667e+02	1.29000e+03	0.00151748	435.0
1300	4.44709e+02	1.30000e+03	-0.00325665	440.0
1310	4.49669e+02	1.31000e+03	-0.00600408	445.0
1320	4.54151e+02	1.32000e+03	-0.00719985	450.0
1330	4.59687e+02	1.33000e+03	-0.00788851	455.0
1340	4.64876e+02	1.34000e+03	-0.00807185	460.0
1350	4.69508e+02	1.35000e+03	-0.00823722	465.0
1360	4.73989e+02	1.36000e+03	-0.0086136	470.0
1370	4.78728e+02	1.37000e+03	-0.00886674	475.0
1380	4.83556e+02	1.38000e+03	-0.0088873	480.0
1390	4.88368e+02	1.39000e+03	-0.00894327	485.0
1400	4.93210e+02	1.40000e+03	-0.00916572	490.0
1410	4.98023e+02	1.41000e+03	-0.00942512	495.0
1420	5.02897e+02	1.42000e+03	-0.00945125	500.0
1430	5.07805e+02	1.43000e+03	-0.00956859	505.0
1440	5.12654e+02	1.44000e+03	-0.00942559	510.0
1450	5.17489e+02	1.45000e+03	-0.00939096	515.0
1460	5.22357e+02	1.46000e+03	-0.00959153	520.0
1470	5.27268e+02	1.47000e+03	-0.0097565	525.0
1480	5.32208e+02	1.48000e+03	-0.00956616	530.0
1490	5.37102e+02	1.49000e+03	-0.00967107	535.0
1500	5.42036e+02	1.50000e+03	-0.00990146	540.0
1510	5.47011e+02	1.51000e+03	-0.0100193	545.0
1520	5.51780e+02	1.52000e+03	-0.0100917	550.0
1530	5.56552e+02	1.53000e+03	-0.0100784	555.0
1540	5.61492e+02	1.54000e+03	-0.0100868	560.0
1550	5.66453e+02	1.55000e+03	-0.010215	565.0
1560	5.71363e+02	1.56000e+03	-0.0103951	570.0
1570	5.76210e+02	1.57000e+03	-0.0106234	575.0
1580	5.81111e+02	1.58000e+03	-0.0106511	580.0
1590	5.86132e+02	1.59000e+03	-0.010781	585.0
1600	5.91332e+02	1.60000e+03	-0.0108664	590.0
1610	5.97156e+02	1.61000e+03	-0.0108692	595.0
1620	6.02198e+02	1.62000e+03	-0.0106916	600.0
1630	6.06914e+02	1.63000e+03	-0.0105779	605.0
1640	6.11630e+02	1.64000e+03	-0.0109912	610.0
1650	6.16506e+02	1.65000e+03	-0.0108817	615.0
1660	6.21460e+02	1.66000e+03	-0.0107735	620.0
1670	6.26375e+02	1.67000e+03	-0.0110476	625.0
1680	6.31257e+02	1.68000e+03	-0.0111438	630.0
1690	6.36101e+02	1.69000e+03	-0.0110132	635.0
1700	6.41045e+02	1.70000e+03	-0.0112064	640.0
1710	6.46026e+02	1.71000e+03	-0.0115183	645.0
1720	6.51235e+02	1.72000e+03	-0.0114906	650.0
1730	6.56088e+02	1.73000e+03	-0.0115484	655.0
1740	6.60727e+02	1.74000e+03	-0.0117079	660.0
1750	6.65578e+02	1.75000e+03	-0.0119261	665.0
1760	6.70477e+02	1.76000e+03	-0.011607	670.0
1770	6.75393e+02	1.77000e+03	-0.011656	675.0
1780	6.80307e+02	1.78000e+03	-0.011585	680.0
1790	6.85241e+02	1.79000e+03	-0.0115477	685.0
1800	6.89018e+02	1.80000e+03	-0.0113569	690.0
1810	6.91979e+02	1.81000e+03	-0.0116501	695.0
1820	6.94114e+02	1.82000e+03	-0.0115796	700.0
1830	6.95693e+02	1.83000e+03	-0.0115004	700.0
1840	6.96881e+02	1.84000e+03	-0.0115931	700.0
1850	6.97767e+02	1.85000e+03	-0.0115928	700.0
1860	6.98433e+02	1.86000e+03	-0.0116499	700.0
1870	6.98949e+02	1.87000e+03	-0.0117526	700.0
1880	6.99323e+02	1.88000e+03	-0.0118373	700.0
1890	6.99617e+02	1.89000e+03	-0.01171	700.0
1900	6.99857e+02	1.90000e+03	-0.0117799	700.0
1910	7.00056e+02	1.91000e+03	-0.01179	700.0
1920	7.00219e+02	1.92000e+03	-0.0117844	700.0
1930	7.00337e+02	1.93000e+03	-0.0118586	700.0
1940	7.00438e+02	1.94000e+03	-0.0118244	700.0
1950	7.00530e+02	1.95000e+03	-0.0117743	700.0
1960	7.00594e+02	1.96000e+03	-0.0117404	700.0
1970	7.00638e+02	1.97000e+03	-0.0117654	700.0
1980	7.00693e+02	1.98000e+03	-0.0118981	700.0
1990	7.00730e+02	1.99000e+03	-0.0121201	700.0
2000	7.00752e+02	2.00000e+03	-0.0120009	700.0
2010	7.00783e+02	2.01000e+03	-0.0120993	700.0
2020	7.00811e+02	2.02000e+03	-0.0121732	700.0
2030	7.00825e+02	2.03000e+03	-0.012143	700.0
2040	7.00850e+02	2.04000e+03	-0.012189	700.0
2050	7.00860e+02	2.05000e+03	-0.0121855	700.0
2060	7.00873e+02	2.06000e+03	-0.0122798	700.0
2070	7.00882e+02	2.07000e+03	-0.0124247	700.0
2080	7.00908e+02	2.08000e+03	-0.0125741	700.0
2090	7.00911e+02	2.09000e+03	-0.0125806	700.0
2100	7.00936e+02	2.10000e+03	-0.0125605	700.0
2110	7.00938e+02	2.11000e+03	-0.0126545	700.0
2120	7.00939e+02	2.12000e+03	-0.0127852	700.0
2130	7.00954e+02	2.13000e+03	-0.0129061	700.0
2140	7.00953e+02	2.14000e+03	-0.0127555	700.0
2150	7.00963e+02	2.15000e+03	-0.0129915	700.0
2160	7.00969e+02	2.16000e+03	-0.0131039	700.0
2170	7.00963e+02	2.17000e+03	-0.0128829	700.0
2180	7.00956e+02	2.18000e+03	-0.0129311	700.0
2190	7.00957e+02	2.19000e+03	-0.013069	700.0
2200	7.00958e+02	2.20000e+03	-0.0129077	700.0
2210	7.00951e+02	2.21000e+03	-0.0129343	700.0
2220	7.00961e+02	2.22000e+03	-0.0129023	700.0
2230	7.00942e+02	2.23000e+03	-0.0129371	700.0
2240	7.00931e+02	2.24000e+03	-0.0130383	700.0
2250	7.00930e+02	2.25000e+03	-0.0131149	700.0
2260	7.00926e+02	2.26000e+03	-0.0131787	700.0
2270	7.00926e+02	2.27000e+03	-0.0130754	700.0
2280	7.00926e+02	2.28000e+03	-0.0130844	700.0
2290	7.00917e+02	2.29000e+03	-0.0129816	700.0
2300	7.00914e+02	2.30000e+03	-0.0130511	700.0
2310	7.00906e+02	2.31000e+03	-0.0128333	700.0
2320	7.00909e+02	2.32000e+03	-0.0130173	700.0
2330	7.00913e+02	2.33000e+03	-0.013037	700.0
2340	7.00901e+02	2.34000e+03	-0.0131205	700.0
2350	7.00912e+02	2.35000e+03	-0.013224	700.0
2360	7.00898e+02	2.36000e+03	-0.0131678	700.0
2370	7.00894e+02	2.37000e+03	-0.0130604	700.0
2380	7.00898e+02	2.38000e+03	-0.0130715	700.0
2390	7.00897e+02	2.39000e+03	-0.0132752	700.0
2400	7.00886e+02	2.40000e+03	-0.0134163	700.0
2410	7.00883e+02	2.41000e+03	-0.0131499	700.0
2420	7.00885e+02	2.42000e+03	-0.0130031	700.0
2430	7.00877e+02	2.43000e+03	-0.0135638	700.0
2440	7.00880e+02	2.44000e+03	-0.0131807	700.0
2450	7.00878e+02	2.45000e+03	-0.0130117	700.0
2460	7.00879e+02	2.46000e+03	-0.0132068	700.0
2470	7.00882e+02	2.47000e+03	-0.013347	700.0
2480	7.00878e+02	2.48000e+03	-0.0130796	700.0
2490	7.00864e+02	2.49000e+03	-0.0131463	700.0
2500	7.00867e+02	2.50000e+03	-0.0131241	700.0
2510	7.00868e+02	2.51000e+03	-0.0130531	700.0
2520	7.00860e+02	2.52000e+03	-0.0131448	700.0
2530	7.00872e+02	2.53000e+03	-0.0131881	700.0
2540	7.00860e+02	2.54000e+03	-0.013077	700.0
2550	7.00868e+02	2.55000e+03	-0.0132068	700.0
2560	7.00859e+02	2.56000e+03	-0.013229	700.0
2570	7.00855e+02	2.57000e+03	-0.0132643	700.0
2580	7.00858e+02	2.58000e+03	-0.0132193	700.0
2590	7.00852e+02	2.59000e+03	-0.0132863	700.0
2600	7.00856e+02	2.60000e+03	-0.0132956	700.0
2610	7.00856e+02	2.61000e+03	-0.0133015	700.0
2620	7.00848e+02	2.62000e+03	-0.0133075	700.0
2630	7.00852e+02	2.63000e+03	-0.0133926	700.0
2640	7.00856e+02	2.64000e+03	-0.0133068	700.0
2650	7.00859e+02	2.65000e+03	-0.0131159	700.0
2660	7.00849e+02	2.66000e+03	-0.0130922	700.0
2670	7.00842e+02	2.67000e+03	-0.0132104	700.0
2680	7.00858e+02	2.68000e+03	-0.013194	700.0
2690	7.00847e+02	2.69000e+03	-0.0130766	700.0
2700	7.00848e+02	2.70000e+03	-0.0131728	700.0
2710	7.00847e+02	2.71000e+03	-0.0131042	700.0
2720	7.00859e+02	2.72000e+03	-0.0132339	700.0