File: Experiments/TUBS/tga_nonisotherm/tga_dynamic_n2_dyn45_powder_3mg_r1.txt
index	ts	t	weight	tr
[#]	[°C]	[s]	[mg]	[°C]
657	1.32638e+02	6.57000e+02	2.97862e+00	1.32752e+02
661	1.35742e+02	6.61000e+02	2.97847e+00	1.35752e+02
665	1.38862e+02	6.65000e+02	2.97801e+00	1.38752e+02
669	1.41961e+02	6.69000e+02	2.97752e+00	1.41752e+02
673	1.45033e+02	6.73000e+02	2.97700e+00	1.44752e+02
677	1.48172e+02	6.77000e+02	2.97621e+00	1.47752e+02
681	1.51265e+02	6.81000e+02	2.97542e+00	1.50752e+02
685	1.54356e+02	6.85000e+02	2.97474e+00	1.53753e+02
689	1.57445e+02	6.89000e+02	2.97399e+00	1.56753e+02
693	1.60530e+02	6.93000e+02	2.97309e+00	1.59753e+02
697	1.63581e+02	6.97000e+02	2.97190e+00	1.62753e+02
701	1.66654e+02	7.01000e+02	2.97037e+00	1.65753e+02
705	1.69725e+02	7.05000e+02	2.96866e+00	1.68753e+02
709	1.72811e+02	7.09000e+02	2.96681e+00	1.71753e+02
713	1.75894e+02	7.13000e+02	2.96488e+00	1.74753e+02
717	1.78961e+02	7.17000e+02	2.96255e+00	1.77754e+02
721	1.82049e+02	7.21000e+02	2.95944e+00	1.80754e+02
725	1.85114e+02	7.25000e+02	2.95537e+00	1.83754e+02
729	1.88183e+02	7.29000e+02	2.95013e+00	1.86754e+02
733	1.91264e+02	7.33000e+02	2.94389e+00	1.89754e+02
737	1.94336e+02	7.37000e+02	2.93700e+00	1.92754e+02
741	1.97406e+02	7.41000e+02	2.92934e+00	1.95754e+02
745	2.00477e+02	7.45000e+02	2.92102e+00	1.98754e+02
749	2.03555e+02	7.49000e+02	2.91206e+00	2.01755e+02
753	2.06632e+02	7.53000e+02	2.90302e+00	2.04755e+02
757	2.09723e+02	7.57000e+02	2.89485e+00	2.07755e+02
761	2.12802e+02	7.61000e+02	2.88785e+00	2.10755e+02
765	2.15903e+02	7.65000e+02	2.88217e+00	2.13755e+02
769	2.18971e+02	7.69000e+02	2.87798e+00	2.16755e+02
773	2.22036e+02	7.73000e+02	2.87475e+00	2.19755e+02
777	2.25123e+02	7.77000e+02	2.87177e+00	2.22755e+02
781	2.28189e+02	7.81000e+02	2.86904e+00	2.25756e+02
785	2.31261e+02	7.85000e+02	2.86674e+00	2.28756e+02
789	2.34352e+02	7.89000e+02	2.86461e+00	2.31756e+02
793	2.37372e+02	7.93000e+02	2.86238e+00	2.34756e+02
797	2.40429e+02	7.97000e+02	2.86011e+00	2.37756e+02
801	2.43518e+02	8.01000e+02	2.85806e+00	2.40756e+02
805	2.46600e+02	8.05000e+02	2.85610e+00	2.43756e+02
809	2.49685e+02	8.09000e+02	2.85402e+00	2.46756e+02
813	2.52768e+02	8.13000e+02	2.85185e+00	2.49757e+02
817	2.55820e+02	8.17000e+02	2.84970e+00	2.52757e+02
821	2.58889e+02	8.21000e+02	2.84780e+00	2.55757e+02
825	2.61982e+02	8.25000e+02	2.84617e+00	2.58757e+02
829	2.65085e+02	8.29000e+02	2.84475e+00	2.61757e+02
833	2.68195e+02	8.33000e+02	2.84338e+00	2.64757e+02
837	2.71274e+02	8.37000e+02	2.84143e+00	2.67757e+02
841	2.74365e+02	8.41000e+02	2.83906e+00	2.70757e+02
845	2.77435e+02	8.45000e+02	2.83708e+00	2.73758e+02
849	2.80547e+02	8.49000e+02	2.83544e+00	2.76758e+02
853	2.83674e+02	8.53000e+02	2.83357e+00	2.79758e+02
857	2.86746e+02	8.57000e+02	2.83090e+00	2.82758e+02
861	2.89802e+02	8.61000e+02	2.82750e+00	2.85758e+02
865	2.92864e+02	8.65000e+02	2.82352e+00	2.88758e+02
869	2.95931e+02	8.69000e+02	2.81870e+00	2.91758e+02
873	2.98987e+02	8.73000e+02	2.81318e+00	2.94758e+02
877	3.02037e+02	8.77000e+02	2.80690e+00	2.97759e+02
881	3.05062e+02	8.81000e+02	2.79984e+00	3.00759e+02
885	3.08074e+02	8.85000e+02	2.79158e+00	3.03759e+02
889	3.11071e+02	8.89000e+02	2.78174e+00	3.06759e+02
893	3.14048e+02	8.93000e+02	2.77077e+00	3.09759e+02
897	3.16949e+02	8.97000e+02	2.75875e+00	3.12759e+02
901	3.19855e+02	9.01000e+02	2.74574e+00	3.15759e+02
905	3.22795e+02	9.05000e+02	2.73230e+00	3.18759e+02
909	3.25763e+02	9.09000e+02	2.71846e+00	3.21759e+02
913	3.28769e+02	9.13000e+02	2.70426e+00	3.24760e+02
917	3.31789e+02	9.17000e+02	2.68907e+00	3.27760e+02
921	3.34813e+02	9.21000e+02	2.67250e+00	3.30760e+02
925	3.37905e+02	9.25000e+02	2.65395e+00	3.33760e+02
929	3.40932e+02	9.29000e+02	2.63225e+00	3.36760e+02
933	3.43975e+02	9.33000e+02	2.60710e+00	3.39760e+02
937	3.47009e+02	9.37000e+02	2.57807e+00	3.42760e+02
941	3.50049e+02	9.41000e+02	2.54369e+00	3.45760e+02
945	3.53016e+02	9.45000e+02	2.50321e+00	3.48761e+02
949	3.55996e+02	9.49000e+02	2.45618e+00	3.51761e+02
953	3.59002e+02	9.53000e+02	2.40212e+00	3.54761e+02
957	3.62024e+02	9.57000e+02	2.33996e+00	3.57761e+02
961	3.64988e+02	9.61000e+02	2.26852e+00	3.60761e+02
965	3.67934e+02	9.65000e+02	2.18788e+00	3.63761e+02
969	3.70915e+02	9.69000e+02	2.09925e+00	3.66761e+02
973	3.73845e+02	9.73000e+02	2.00347e+00	3.69761e+02
977	3.76808e+02	9.77000e+02	1.90077e+00	3.72762e+02
981	3.79767e+02	9.81000e+02	1.79146e+00	3.75762e+02
985	3.82720e+02	9.85000e+02	1.67531e+00	3.78762e+02
989	3.85687e+02	9.89000e+02	1.55323e+00	3.81762e+02
993	3.88644e+02	9.93000e+02	1.42648e+00	3.84762e+02
997	3.91595e+02	9.97000e+02	1.29743e+00	3.87762e+02
1001	3.94572e+02	1.00100e+03	1.16807e+00	3.90762e+02
1005	3.97540e+02	1.00500e+03	1.03993e+00	3.93762e+02
1009	4.00536e+02	1.00900e+03	9.14020e-01	3.96763e+02
1013	4.03540e+02	1.01300e+03	7.90926e-01	3.99763e+02
1017	4.06542e+02	1.01700e+03	6.71551e-01	4.02763e+02
1021	4.09587e+02	1.02100e+03	5.58661e-01	4.05763e+02
1025	4.12614e+02	1.02500e+03	4.55356e-01	4.08763e+02
1029	4.15668e+02	1.02900e+03	3.63720e-01	4.11763e+02
1033	4.18716e+02	1.03300e+03	2.85600e-01	4.14763e+02
1037	4.21784e+02	1.03700e+03	2.21871e-01	4.17763e+02
1041	4.24830e+02	1.04100e+03	1.68540e-01	4.20764e+02
1045	4.27830e+02	1.04500e+03	1.25278e-01	4.23764e+02
1049	4.30811e+02	1.04900e+03	9.13856e-02	4.26764e+02
1053	4.33800e+02	1.05300e+03	6.61726e-02	4.29764e+02
1057	4.36763e+02	1.05700e+03	4.85165e-02	4.32764e+02
1061	4.39746e+02	1.06100e+03	3.60446e-02	4.35764e+02
1065	4.42716e+02	1.06500e+03	2.74060e-02	4.38764e+02
1069	4.45652e+02	1.06900e+03	2.18509e-02	4.41764e+02
1073	4.48589e+02	1.07300e+03	1.76766e-02	4.44765e+02
1077	4.51505e+02	1.07700e+03	1.44121e-02	4.47765e+02
1081	4.54456e+02	1.08100e+03	1.23055e-02	4.50765e+02
1085	4.57414e+02	1.08500e+03	1.02955e-02	4.53765e+02
1089	4.60343e+02	1.08900e+03	8.88236e-03	4.56765e+02
1093	4.63304e+02	1.09300e+03	8.73901e-03	4.59765e+02
1097	4.66259e+02	1.09700e+03	9.14974e-03	4.62765e+02
1101	4.69201e+02	1.10100e+03	8.98741e-03	4.65765e+02
1105	4.72160e+02	1.10500e+03	7.92050e-03	4.68766e+02
1109	4.75037e+02	1.10900e+03	7.44405e-03	4.71766e+02
1113	4.77939e+02	1.11300e+03	7.62622e-03	4.74766e+02
1117	4.80856e+02	1.11700e+03	7.62921e-03	4.77766e+02
1121	4.83763e+02	1.12100e+03	7.57237e-03	4.80766e+02
1125	4.86664e+02	1.12500e+03	7.36841e-03	4.83766e+02
1129	4.89594e+02	1.12900e+03	7.03749e-03	4.86766e+02
1133	4.92492e+02	1.13300e+03	6.76844e-03	4.89766e+02
1137	4.95395e+02	1.13700e+03	6.62000e-03	4.92766e+02
1141	4.98304e+02	1.14100e+03	6.64458e-03	4.95767e+02
1145	5.01209e+02	1.14500e+03	6.64209e-03	4.98767e+02
1149	5.04131e+02	1.14900e+03	6.58045e-03	5.01767e+02
1153	5.07053e+02	1.15300e+03	6.62983e-03	5.04767e+02
1157	5.09976e+02	1.15700e+03	6.55578e-03	5.07767e+02
1161	5.12902e+02	1.16100e+03	6.22314e-03	5.10767e+02
1165	5.15828e+02	1.16500e+03	5.90524e-03	5.13767e+02
1169	5.18775e+02	1.16900e+03	5.81378e-03	5.16767e+02
1173	5.21736e+02	1.17300e+03	5.82122e-03	5.19768e+02
1177	5.24684e+02	1.17700e+03	5.79451e-03	5.22768e+02
1181	5.27670e+02	1.18100e+03	5.86361e-03	5.25768e+02
1185	5.30667e+02	1.18500e+03	5.95126e-03	5.28768e+02
1189	5.33643e+02	1.18900e+03	5.97619e-03	5.31768e+02
1193	5.36571e+02	1.19300e+03	5.90709e-03	5.34768e+02
1197	5.39265e+02	1.19700e+03	5.32801e-03	5.37768e+02
1201	5.43230e+02	1.20100e+03	4.91087e-03	5.40768e+02
1205	5.46057e+02	1.20500e+03	5.35291e-03	5.43769e+02
1209	5.48970e+02	1.20900e+03	5.48593e-03	5.46769e+02
1213	5.51839e+02	1.21300e+03	4.74066e-03	5.49769e+02
1217	5.54755e+02	1.21700e+03	3.61701e-03	5.52769e+02
1221	5.57745e+02	1.22100e+03	3.16091e-03	5.55769e+02
1225	5.60732e+02	1.22500e+03	3.81458e-03	5.58769e+02
1229	5.63673e+02	1.22900e+03	4.41615e-03	5.61769e+02
1233	5.66673e+02	1.23300e+03	4.21726e-03	5.64769e+02
1237	5.69591e+02	1.23700e+03	3.92564e-03	5.67770e+02
1241	5.72589e+02	1.24100e+03	3.87845e-03	5.70770e+02
1245	5.75794e+02	1.24500e+03	4.03033e-03	5.73770e+02
1249	5.78953e+02	1.24900e+03	4.09205e-03	5.76770e+02
1253	5.82046e+02	1.25300e+03	4.04662e-03	5.79770e+02
1257	5.85110e+02	1.25700e+03	3.77374e-03	5.82770e+02
1261	5.89082e+02	1.26100e+03	3.36836e-03	5.85770e+02
1265	5.91787e+02	1.26500e+03	2.90349e-03	5.88770e+02
1269	5.94693e+02	1.26900e+03	2.76615e-03	5.91771e+02
1273	5.97603e+02	1.27300e+03	2.82361e-03	5.94771e+02
1277	6.00495e+02	1.27700e+03	2.83622e-03	5.97771e+02
1281	6.03378e+02	1.28100e+03	2.65496e-03	6.00771e+02
1285	6.06290e+02	1.28500e+03	2.59164e-03	6.03771e+02
1289	6.09182e+02	1.28900e+03	2.83173e-03	6.06771e+02
1293	6.11943e+02	1.29300e+03	2.85312e-03	6.09771e+02
1297	6.14821e+02	1.29700e+03	2.84705e-03	6.12771e+02
1301	6.17768e+02	1.30100e+03	2.98456e-03	6.15772e+02
1305	6.20627e+02	1.30500e+03	2.81794e-03	6.18772e+02
1309	6.23534e+02	1.30900e+03	2.55379e-03	6.21772e+02
1313	6.26379e+02	1.31300e+03	2.57959e-03	6.24772e+02
1317	6.29226e+02	1.31700e+03	2.64713e-03	6.27772e+02
1321	6.32096e+02	1.32100e+03	2.61444e-03	6.30772e+02
1325	6.34940e+02	1.32500e+03	2.64218e-03	6.33772e+02
1329	6.37801e+02	1.32900e+03	2.69951e-03	6.36772e+02
1333	6.40660e+02	1.33300e+03	2.69274e-03	6.39773e+02
1337	6.43628e+02	1.33700e+03	2.54995e-03	6.42773e+02
1341	6.46660e+02	1.34100e+03	2.41139e-03	6.45773e+02
1345	6.49697e+02	1.34500e+03	2.42568e-03	6.48773e+02
1349	6.52691e+02	1.34900e+03	2.52679e-03	6.51773e+02
1353	6.55844e+02	1.35300e+03	2.66199e-03	6.54773e+02
1357	6.58840e+02	1.35700e+03	2.69422e-03	6.57773e+02
1361	6.61825e+02	1.36100e+03	2.57289e-03	6.60773e+02
1365	6.64891e+02	1.36500e+03	2.44978e-03	6.63773e+02
1369	6.67920e+02	1.36900e+03	2.38708e-03	6.66774e+02
1373	6.70963e+02	1.37300e+03	2.34411e-03	6.69774e+02
1377	6.74088e+02	1.37700e+03	2.34226e-03	6.72774e+02
1381	6.77030e+02	1.38100e+03	2.33082e-03	6.75774e+02
1385	6.79862e+02	1.38500e+03	2.22647e-03	6.78774e+02
1389	6.81970e+02	1.38900e+03	2.34348e-03	6.81774e+02
1393	6.83989e+02	1.39300e+03	2.61016e-03	6.84774e+02
1397	6.85797e+02	1.39700e+03	2.66993e-03	6.87774e+02
1401	6.87524e+02	1.40100e+03	2.61798e-03	6.90775e+02
1405	6.89320e+02	1.40500e+03	2.58606e-03	6.93775e+02
1409	6.90880e+02	1.40900e+03	2.57361e-03	6.96775e+02
1413	6.92133e+02	1.41300e+03	2.63858e-03	6.99775e+02
1414	6.92418e+02	1.41400e+03	2.67159e-03	7.00000e+02