File: Experiments/TUBS/tga_nonisotherm/tga_dynamic_n2high60_dyn30_powder_3mg_r3.txt
Index	Ts	t	Weight	Tr
[#]	[°C]	[s]	[mg]	[°C]
682	1.30227e+02	6.82000e+02	2.98035	131.0
692	1.35232e+02	6.92000e+02	2.97995	136.0
702	1.40263e+02	7.02000e+02	2.97966	141.0
712	1.45281e+02	7.12000e+02	2.97861	146.0
722	1.50315e+02	7.22000e+02	2.97712	151.0
732	1.55348e+02	7.32000e+02	2.97514	156.0
742	1.60397e+02	7.42000e+02	2.97259	161.0
752	1.65439e+02	7.52000e+02	2.9694	166.0
762	1.70484e+02	7.62000e+02	2.96507	171.0
772	1.75545e+02	7.72000e+02	2.95902	176.0
782	1.80607e+02	7.82000e+02	2.94988	181.0
792	1.85655e+02	7.92000e+02	2.93707	186.0
802	1.90748e+02	8.02000e+02	2.92109	191.0
812	1.95824e+02	8.12000e+02	2.90333	196.0
822	2.00911e+02	8.22000e+02	2.8865	201.0
832	2.06012e+02	8.32000e+02	2.8726	206.0
842	2.11133e+02	8.42000e+02	2.86307	211.0
852	2.16228e+02	8.52000e+02	2.85737	216.0
862	2.21299e+02	8.62000e+02	2.85333	221.0
872	2.26343e+02	8.72000e+02	2.8499	226.0
882	2.31402e+02	8.82000e+02	2.84638	231.0
892	2.36470e+02	8.92000e+02	2.84257	236.0
902	2.41509e+02	9.02000e+02	2.83923	241.0
912	2.46542e+02	9.12000e+02	2.83653	246.0
922	2.51613e+02	9.22000e+02	2.83399	251.0
932	2.56586e+02	9.32000e+02	2.83173	256.0
942	2.61628e+02	9.42000e+02	2.82928	261.0
952	2.66700e+02	9.52000e+02	2.82654	266.0
962	2.71828e+02	9.62000e+02	2.8243	271.0
972	2.76852e+02	9.72000e+02	2.82132	276.0
982	2.81931e+02	9.82000e+02	2.81722	281.0
992	2.87036e+02	9.92000e+02	2.81134	286.0
1002	2.92112e+02	1.00200e+03	2.80382	291.0
1012	2.97180e+02	1.01200e+03	2.79322	296.0
1022	3.02353e+02	1.02200e+03	2.77928	301.0
1032	3.07467e+02	1.03200e+03	2.76188	306.0
1042	3.12615e+02	1.04200e+03	2.7422	311.0
1052	3.17780e+02	1.05200e+03	2.72051	316.0
1062	3.22851e+02	1.06200e+03	2.69856	321.0
1072	3.27867e+02	1.07200e+03	2.67518	326.0
1082	3.32972e+02	1.08200e+03	2.64726	331.0
1092	3.38036e+02	1.09200e+03	2.61047	336.0
1102	3.43196e+02	1.10200e+03	2.56059	341.0
1112	3.48210e+02	1.11200e+03	2.49326	346.0
1122	3.52871e+02	1.12200e+03	2.4037	351.0
1132	3.57831e+02	1.13200e+03	2.28801	356.0
1142	3.62620e+02	1.14200e+03	2.14552	361.0
1152	3.67425e+02	1.15200e+03	1.97706	366.0
1162	3.72267e+02	1.16200e+03	1.78576	371.0
1172	3.77241e+02	1.17200e+03	1.57461	376.0
1182	3.82355e+02	1.18200e+03	1.3477	381.0
1192	3.87337e+02	1.19200e+03	1.10582	386.0
1202	3.92292e+02	1.20200e+03	0.873753	391.0
1212	3.97280e+02	1.21200e+03	0.659807	396.0
1222	4.02374e+02	1.22200e+03	0.474497	401.0
1232	4.07508e+02	1.23200e+03	0.326886	406.0
1242	4.12505e+02	1.24200e+03	0.217184	411.0
1252	4.17602e+02	1.25200e+03	0.140023	416.0
1262	4.22592e+02	1.26200e+03	0.0888451	421.0
1272	4.27432e+02	1.27200e+03	0.057745	426.0
1282	4.32423e+02	1.28200e+03	0.0401042	431.0
1292	4.37358e+02	1.29200e+03	0.0304075	436.0
1302	4.42334e+02	1.30200e+03	0.0252481	441.0
1312	4.47213e+02	1.31200e+03	0.0225636	446.0
1322	4.52023e+02	1.32200e+03	0.0210696	451.0
1332	4.56785e+02	1.33200e+03	0.0205099	456.0
1342	4.61622e+02	1.34200e+03	0.0200885	461.0
1352	4.66411e+02	1.35200e+03	0.0199214	466.0
1362	4.71266e+02	1.36200e+03	0.0200698	471.0
1372	4.76162e+02	1.37200e+03	0.0198998	476.0
1382	4.81024e+02	1.38200e+03	0.0197255	481.0
1392	4.85933e+02	1.39200e+03	0.0196746	486.0
1402	4.90816e+02	1.40200e+03	0.0195477	491.0
1412	4.95754e+02	1.41200e+03	0.0195867	496.0
1422	5.00711e+02	1.42200e+03	0.019527	501.0
1432	5.05676e+02	1.43200e+03	0.0193871	506.0
1442	5.10689e+02	1.44200e+03	0.0191545	511.0
1452	5.15682e+02	1.45200e+03	0.0194019	516.0
1462	5.20679e+02	1.46200e+03	0.0193415	521.0
1472	5.25957e+02	1.47200e+03	0.0193817	526.0
1482	5.31113e+02	1.48200e+03	0.0193945	531.0
1492	5.36379e+02	1.49200e+03	0.0194014	536.0
1502	5.41630e+02	1.50200e+03	0.0193191	541.0
1512	5.46749e+02	1.51200e+03	0.0191788	546.0
1522	5.51361e+02	1.52200e+03	0.0189834	551.0
1532	5.56308e+02	1.53200e+03	0.0192931	556.0
1542	5.61281e+02	1.54200e+03	0.0193268	561.0
1552	5.66154e+02	1.55200e+03	0.0191406	566.0
1562	5.71254e+02	1.56200e+03	0.0193391	571.0
1572	5.76338e+02	1.57200e+03	0.0193747	576.0
1582	5.81383e+02	1.58200e+03	0.019223	581.0
1592	5.86892e+02	1.59200e+03	0.0192131	586.0
1602	5.94086e+02	1.60200e+03	0.0193807	591.0
1612	5.98268e+02	1.61200e+03	0.0194062	596.0
1622	6.02766e+02	1.62200e+03	0.0195095	601.0
1632	6.07588e+02	1.63200e+03	0.0193539	606.0
1642	6.12082e+02	1.64200e+03	0.0192245	611.0
1652	6.16577e+02	1.65200e+03	0.0192151	616.0
1662	6.21362e+02	1.66200e+03	0.019237	621.0
1672	6.26270e+02	1.67200e+03	0.0193338	626.0
1682	6.31052e+02	1.68200e+03	0.0191069	631.0
1692	6.35822e+02	1.69200e+03	0.0192193	636.0
1702	6.40620e+02	1.70200e+03	0.0192101	641.0
1712	6.45430e+02	1.71200e+03	0.0193183	646.0
1722	6.50252e+02	1.72200e+03	0.0193474	651.0
1732	6.55109e+02	1.73200e+03	0.019097	656.0
1742	6.59969e+02	1.74200e+03	0.0190495	661.0
1752	6.64864e+02	1.75200e+03	0.0192529	666.0
1762	6.69746e+02	1.76200e+03	0.0193196	671.0
1772	6.74637e+02	1.77200e+03	0.0192449	676.0
1782	6.79525e+02	1.78200e+03	0.0191103	681.0
1792	6.84468e+02	1.79200e+03	0.0189521	686.0
1802	6.87894e+02	1.80200e+03	0.0192702	691.0
1812	6.90610e+02	1.81200e+03	0.019171	696.0
1822	6.92608e+02	1.82200e+03	0.0190505	700.0
1832	6.94061e+02	1.83200e+03	0.0189466	700.0
1842	6.95145e+02	1.84200e+03	0.0189704	700.0
1852	6.95984e+02	1.85200e+03	0.0190073	700.0
1862	6.96659e+02	1.86200e+03	0.0191056	700.0
1872	6.97170e+02	1.87200e+03	0.0189003	700.0
1882	6.97562e+02	1.88200e+03	0.0189411	700.0
1892	6.97889e+02	1.89200e+03	0.0191606	700.0
1902	6.98145e+02	1.90200e+03	0.0188903	700.0
1912	6.98329e+02	1.91200e+03	0.0190516	700.0
1922	6.98479e+02	1.92200e+03	0.0189022	700.0
1932	6.98610e+02	1.93200e+03	0.0190072	700.0
1942	6.98720e+02	1.94200e+03	0.0191114	700.0
1952	6.98793e+02	1.95200e+03	0.0188645	700.0
1962	6.98848e+02	1.96200e+03	0.0188258	700.0
1972	6.98899e+02	1.97200e+03	0.0189274	700.0
1982	6.98936e+02	1.98200e+03	0.0189727	700.0
1992	6.98968e+02	1.99200e+03	0.0189931	700.0
2002	6.98987e+02	2.00200e+03	0.018939	700.0
2012	6.98997e+02	2.01200e+03	0.0189091	700.0
2022	6.99009e+02	2.02200e+03	0.0191025	700.0
2032	6.99025e+02	2.03200e+03	0.0190165	700.0
2042	6.99021e+02	2.04200e+03	0.0190185	700.0
2052	6.99027e+02	2.05200e+03	0.0189479	700.0
2062	6.99015e+02	2.06200e+03	0.0189506	700.0
2072	6.99025e+02	2.07200e+03	0.0190442	700.0
2082	6.99021e+02	2.08200e+03	0.018998	700.0
2092	6.99018e+02	2.09200e+03	0.0187785	700.0
2102	6.99018e+02	2.10200e+03	0.0188364	700.0
2112	6.99024e+02	2.11200e+03	0.0188147	700.0
2122	6.99013e+02	2.12200e+03	0.0188976	700.0
2132	6.99013e+02	2.13200e+03	0.0187296	700.0
2142	6.99016e+02	2.14200e+03	0.0186376	700.0
2152	6.99006e+02	2.15200e+03	0.0186989	700.0
2162	6.98998e+02	2.16200e+03	0.0188883	700.0
2172	6.98995e+02	2.17200e+03	0.0189452	700.0
2182	6.98994e+02	2.18200e+03	0.0188224	700.0
2192	6.98980e+02	2.19200e+03	0.0186852	700.0
2202	6.98961e+02	2.20200e+03	0.0186928	700.0
2212	6.98969e+02	2.21200e+03	0.0187847	700.0
2222	6.98959e+02	2.22200e+03	0.01881	700.0
2232	6.98949e+02	2.23200e+03	0.0187484	700.0
2242	6.98944e+02	2.24200e+03	0.0185443	700.0
2252	6.98939e+02	2.25200e+03	0.0184733	700.0
2262	6.98927e+02	2.26200e+03	0.0185564	700.0
2272	6.98924e+02	2.27200e+03	0.0187351	700.0
2282	6.98917e+02	2.28200e+03	0.0187175	700.0
2292	6.98915e+02	2.29200e+03	0.0184645	700.0
2302	6.98909e+02	2.30200e+03	0.0184801	700.0
2312	6.98901e+02	2.31200e+03	0.0186517	700.0
2322	6.98896e+02	2.32200e+03	0.0185812	700.0
2332	6.98887e+02	2.33200e+03	0.0184011	700.0
2342	6.98876e+02	2.34200e+03	0.0184507	700.0
2352	6.98882e+02	2.35200e+03	0.0185725	700.0
2362	6.98876e+02	2.36200e+03	0.0185019	700.0
2372	6.98868e+02	2.37200e+03	0.0184002	700.0
2382	6.98867e+02	2.38200e+03	0.0184864	700.0
2392	6.98869e+02	2.39200e+03	0.0183719	700.0
2402	6.98874e+02	2.40200e+03	0.0182773	700.0
2412	6.98872e+02	2.41200e+03	0.0181662	700.0
2422	6.98849e+02	2.42200e+03	0.0183461	700.0
2432	6.98864e+02	2.43200e+03	0.0183194	700.0
2442	6.98862e+02	2.44200e+03	0.0183009	700.0
2452	6.98851e+02	2.45200e+03	0.0184058	700.0
2462	6.98854e+02	2.46200e+03	0.0184768	700.0
2472	6.98849e+02	2.47200e+03	0.0184073	700.0
2482	6.98849e+02	2.48200e+03	0.0183198	700.0
2492	6.98837e+02	2.49200e+03	0.0185082	700.0
2502	6.98836e+02	2.50200e+03	0.0184329	700.0
2512	6.98839e+02	2.51200e+03	0.018327	700.0
2522	6.98843e+02	2.52200e+03	0.0184939	700.0
2532	6.98845e+02	2.53200e+03	0.0184188	700.0
2542	6.98839e+02	2.54200e+03	0.0182836	700.0
2552	6.98829e+02	2.55200e+03	0.0182412	700.0
2562	6.98836e+02	2.56200e+03	0.0181973	700.0
2572	6.98827e+02	2.57200e+03	0.0181485	700.0
2582	6.98815e+02	2.58200e+03	0.0181753	700.0
2592	6.98815e+02	2.59200e+03	0.018208	700.0
2602	6.98812e+02	2.60200e+03	0.018114	700.0
2612	6.98814e+02	2.61200e+03	0.0180382	700.0
2622	6.98812e+02	2.62200e+03	0.0181211	700.0
2632	6.98813e+02	2.63200e+03	0.0181232	700.0
2642	6.98816e+02	2.64200e+03	0.0182711	700.0
2652	6.98821e+02	2.65200e+03	0.0181049	700.0
2662	6.98809e+02	2.66200e+03	0.0181503	700.0
2672	6.98810e+02	2.67200e+03	0.0181635	700.0
2682	6.98811e+02	2.68200e+03	0.0181484	700.0
2692	6.98810e+02	2.69200e+03	0.0182468	700.0
2702	6.98808e+02	2.70200e+03	0.0181841	700.0
2712	6.98813e+02	2.71200e+03	0.0182784	700.0
2720	6.98818e+02	2.72000e+03	0.0182278	700.0