File: Experiments/TUBS/tga_nonisotherm/tga_dynamic_n2_dyn5_piece_2mg_r3.txt
index	ts	t	weight	tr
[#]	[°C]	[s]	[mg]	[°C]
1083	1.31392e+02	1.08300e+03	2.00469e+00	1.30250e+02
1120	1.34506e+02	1.12000e+03	2.00459e+00	1.33333e+02
1157	1.37634e+02	1.15700e+03	2.00440e+00	1.36417e+02
1194	1.40749e+02	1.19400e+03	2.00421e+00	1.39500e+02
1231	1.43874e+02	1.23100e+03	2.00392e+00	1.42583e+02
1268	1.46994e+02	1.26800e+03	2.00384e+00	1.45667e+02
1305	1.50109e+02	1.30500e+03	2.00349e+00	1.48750e+02
1342	1.53232e+02	1.34200e+03	2.00339e+00	1.51833e+02
1379	1.56345e+02	1.37900e+03	2.00327e+00	1.54917e+02
1416	1.59475e+02	1.41600e+03	2.00307e+00	1.58000e+02
1453	1.62595e+02	1.45300e+03	2.00272e+00	1.61083e+02
1490	1.65713e+02	1.49000e+03	2.00221e+00	1.64167e+02
1527	1.68802e+02	1.52700e+03	2.00131e+00	1.67250e+02
1564	1.71934e+02	1.56400e+03	2.00011e+00	1.70333e+02
1601	1.75060e+02	1.60100e+03	1.99856e+00	1.73417e+02
1638	1.78174e+02	1.63800e+03	1.99662e+00	1.76500e+02
1675	1.81306e+02	1.67500e+03	1.99445e+00	1.79583e+02
1712	1.84420e+02	1.71200e+03	1.99193e+00	1.82667e+02
1749	1.87534e+02	1.74900e+03	1.98918e+00	1.85750e+02
1786	1.90688e+02	1.78600e+03	1.98638e+00	1.88833e+02
1823	1.93793e+02	1.82300e+03	1.98383e+00	1.91917e+02
1860	1.96905e+02	1.86000e+03	1.98106e+00	1.95000e+02
1897	2.00018e+02	1.89700e+03	1.97811e+00	1.98083e+02
1934	2.03130e+02	1.93400e+03	1.97553e+00	2.01167e+02
1971	2.06222e+02	1.97100e+03	1.97281e+00	2.04250e+02
2008	2.09310e+02	2.00800e+03	1.96995e+00	2.07333e+02
2045	2.12399e+02	2.04500e+03	1.96746e+00	2.10417e+02
2082	2.15458e+02	2.08200e+03	1.96486e+00	2.13500e+02
2119	2.18510e+02	2.11900e+03	1.96192e+00	2.16583e+02
2156	2.21569e+02	2.15600e+03	1.95918e+00	2.19667e+02
2193	2.24623e+02	2.19300e+03	1.95647e+00	2.22750e+02
2230	2.27685e+02	2.23000e+03	1.95381e+00	2.25833e+02
2267	2.30766e+02	2.26700e+03	1.95093e+00	2.28917e+02
2304	2.33812e+02	2.30400e+03	1.94814e+00	2.32000e+02
2341	2.36899e+02	2.34100e+03	1.94546e+00	2.35083e+02
2378	2.39986e+02	2.37800e+03	1.94282e+00	2.38167e+02
2415	2.43091e+02	2.41500e+03	1.94022e+00	2.41250e+02
2452	2.46163e+02	2.45200e+03	1.93743e+00	2.44333e+02
2489	2.49230e+02	2.48900e+03	1.93480e+00	2.47417e+02
2526	2.52328e+02	2.52600e+03	1.93222e+00	2.50500e+02
2563	2.55435e+02	2.56300e+03	1.92948e+00	2.53583e+02
2600	2.58517e+02	2.60000e+03	1.92658e+00	2.56667e+02
2637	2.61588e+02	2.63700e+03	1.92382e+00	2.59750e+02
2674	2.64685e+02	2.67400e+03	1.92108e+00	2.62833e+02
2711	2.67785e+02	2.71100e+03	1.91789e+00	2.65917e+02
2748	2.70872e+02	2.74800e+03	1.91436e+00	2.69000e+02
2785	2.73989e+02	2.78500e+03	1.91068e+00	2.72083e+02
2822	2.77098e+02	2.82200e+03	1.90645e+00	2.75167e+02
2859	2.80217e+02	2.85900e+03	1.90149e+00	2.78250e+02
2896	2.83311e+02	2.89600e+03	1.89592e+00	2.81333e+02
2933	2.86494e+02	2.93300e+03	1.88986e+00	2.84417e+02
2970	2.89626e+02	2.97000e+03	1.88315e+00	2.87500e+02
3007	2.92778e+02	3.00700e+03	1.87568e+00	2.90583e+02
3044	2.96027e+02	3.04400e+03	1.86782e+00	2.93667e+02
3081	2.99252e+02	3.08100e+03	1.85976e+00	2.96750e+02
3118	3.02391e+02	3.11800e+03	1.85129e+00	2.99833e+02
3155	3.05504e+02	3.15500e+03	1.84273e+00	3.02917e+02
3192	3.08607e+02	3.19200e+03	1.83356e+00	3.06000e+02
3229	3.11689e+02	3.22900e+03	1.82358e+00	3.09083e+02
3266	3.14785e+02	3.26600e+03	1.81236e+00	3.12167e+02
3303	3.17879e+02	3.30300e+03	1.79918e+00	3.15250e+02
3340	3.20973e+02	3.34000e+03	1.78368e+00	3.18333e+02
3377	3.24126e+02	3.37700e+03	1.76471e+00	3.21417e+02
3414	3.27203e+02	3.41400e+03	1.74176e+00	3.24500e+02
3451	3.30282e+02	3.45100e+03	1.71366e+00	3.27583e+02
3488	3.33314e+02	3.48800e+03	1.67915e+00	3.30667e+02
3525	3.36388e+02	3.52500e+03	1.63624e+00	3.33750e+02
3562	3.39525e+02	3.56200e+03	1.58101e+00	3.36833e+02
3599	3.42633e+02	3.59900e+03	1.51793e+00	3.39917e+02
3636	3.45791e+02	3.63600e+03	1.44137e+00	3.43000e+02
3673	3.48906e+02	3.67300e+03	1.35199e+00	3.46083e+02
3710	3.51990e+02	3.71000e+03	1.25167e+00	3.49167e+02
3747	3.55086e+02	3.74700e+03	1.14185e+00	3.52250e+02
3784	3.58206e+02	3.78400e+03	1.02420e+00	3.55333e+02
3821	3.61272e+02	3.82100e+03	9.02584e-01	3.58417e+02
3858	3.64214e+02	3.85800e+03	7.79630e-01	3.61500e+02
3895	3.67180e+02	3.89500e+03	6.56106e-01	3.64583e+02
3932	3.70334e+02	3.93200e+03	5.38516e-01	3.67667e+02
3969	3.73834e+02	3.96900e+03	4.31748e-01	3.70750e+02
4006	3.76871e+02	4.00600e+03	3.39558e-01	3.73833e+02
4043	3.79900e+02	4.04300e+03	2.63043e-01	3.76917e+02
4080	3.82987e+02	4.08000e+03	2.02268e-01	3.80000e+02
4117	3.86146e+02	4.11700e+03	1.55603e-01	3.83083e+02
4154	3.89155e+02	4.15400e+03	1.20442e-01	3.86167e+02
4191	3.92288e+02	4.19100e+03	9.51277e-02	3.89250e+02
4228	3.95391e+02	4.22800e+03	7.68514e-02	3.92333e+02
4265	3.98462e+02	4.26500e+03	6.41996e-02	3.95417e+02
4302	4.01546e+02	4.30200e+03	5.49069e-02	3.98500e+02
4339	4.04753e+02	4.33900e+03	4.77730e-02	4.01583e+02
4376	4.07844e+02	4.37600e+03	4.26617e-02	4.04667e+02
4413	4.10898e+02	4.41300e+03	3.83628e-02	4.07750e+02
4450	4.13964e+02	4.45000e+03	3.51200e-02	4.10833e+02
4487	4.17066e+02	4.48700e+03	3.24722e-02	4.13917e+02
4524	4.20138e+02	4.52400e+03	3.06230e-02	4.17000e+02
4561	4.23146e+02	4.56100e+03	2.90188e-02	4.20083e+02
4598	4.26136e+02	4.59800e+03	2.82582e-02	4.23167e+02
4635	4.29158e+02	4.63500e+03	2.79892e-02	4.26250e+02
4672	4.32153e+02	4.67200e+03	2.82233e-02	4.29333e+02
4709	4.34726e+02	4.70900e+03	2.76021e-02	4.32417e+02
4746	4.37613e+02	4.74600e+03	2.72854e-02	4.35500e+02
4783	4.40593e+02	4.78300e+03	2.72574e-02	4.38583e+02
4820	4.43590e+02	4.82000e+03	2.64775e-02	4.41667e+02
4857	4.46596e+02	4.85700e+03	2.70803e-02	4.44750e+02
4894	4.49602e+02	4.89400e+03	2.68513e-02	4.47833e+02
4931	4.52606e+02	4.93100e+03	2.68619e-02	4.50917e+02
4968	4.55589e+02	4.96800e+03	2.68170e-02	4.54000e+02
5005	4.58609e+02	5.00500e+03	2.67453e-02	4.57083e+02
5042	4.61630e+02	5.04200e+03	2.67122e-02	4.60167e+02
5079	4.64655e+02	5.07900e+03	2.66608e-02	4.63250e+02
5116	4.67707e+02	5.11600e+03	2.67227e-02	4.66333e+02
5153	4.70722e+02	5.15300e+03	2.66354e-02	4.69417e+02
5190	4.73754e+02	5.19000e+03	2.65968e-02	4.72500e+02
5227	4.76744e+02	5.22700e+03	2.65405e-02	4.75583e+02
5264	4.79760e+02	5.26400e+03	2.64694e-02	4.78667e+02
5301	4.82767e+02	5.30100e+03	2.65033e-02	4.81750e+02
5338	4.85837e+02	5.33800e+03	2.63968e-02	4.84833e+02
5375	4.88852e+02	5.37500e+03	2.63412e-02	4.87917e+02
5412	4.91900e+02	5.41200e+03	2.63895e-02	4.91000e+02
5449	4.94942e+02	5.44900e+03	2.63722e-02	4.94083e+02
5486	4.97978e+02	5.48600e+03	2.62731e-02	4.97167e+02
5523	5.00997e+02	5.52300e+03	2.62295e-02	5.00250e+02
5560	5.04043e+02	5.56000e+03	2.61945e-02	5.03333e+02
5597	5.07111e+02	5.59700e+03	2.60948e-02	5.06417e+02
5634	5.10165e+02	5.63400e+03	2.62940e-02	5.09500e+02
5671	5.13200e+02	5.67100e+03	2.62491e-02	5.12583e+02
5708	5.16248e+02	5.70800e+03	2.62114e-02	5.15667e+02
5745	5.19283e+02	5.74500e+03	2.62416e-02	5.18750e+02
5782	5.22352e+02	5.78200e+03	2.62318e-02	5.21833e+02
5819	5.25435e+02	5.81900e+03	2.60333e-02	5.24917e+02
5856	5.28507e+02	5.85600e+03	2.59508e-02	5.28000e+02
5893	5.31562e+02	5.89300e+03	2.61754e-02	5.31083e+02
5930	5.34629e+02	5.93000e+03	2.61054e-02	5.34167e+02
5967	5.37708e+02	5.96700e+03	2.61010e-02	5.37250e+02
6004	5.40806e+02	6.00400e+03	2.61034e-02	5.40333e+02
6041	5.43891e+02	6.04100e+03	2.58872e-02	5.43417e+02
6078	5.46949e+02	6.07800e+03	2.61512e-02	5.46500e+02
6115	5.50008e+02	6.11500e+03	2.61871e-02	5.49583e+02
6152	5.53085e+02	6.15200e+03	2.59198e-02	5.52667e+02
6189	5.56154e+02	6.18900e+03	2.61476e-02	5.55750e+02
6226	5.59215e+02	6.22600e+03	2.60938e-02	5.58833e+02
6263	5.62293e+02	6.26300e+03	2.59515e-02	5.61917e+02
6300	5.65397e+02	6.30000e+03	2.58805e-02	5.65000e+02
6337	5.68527e+02	6.33700e+03	2.59066e-02	5.68083e+02
6374	5.71650e+02	6.37400e+03	2.59798e-02	5.71167e+02
6411	5.74757e+02	6.41100e+03	2.60200e-02	5.74250e+02
6448	5.77868e+02	6.44800e+03	2.58190e-02	5.77333e+02
6485	5.80945e+02	6.48500e+03	2.60071e-02	5.80417e+02
6522	5.84071e+02	6.52200e+03	2.58651e-02	5.83500e+02
6559	5.87166e+02	6.55900e+03	2.60194e-02	5.86583e+02
6596	5.90223e+02	6.59600e+03	2.58305e-02	5.89667e+02
6633	5.93274e+02	6.63300e+03	2.59306e-02	5.92750e+02
6670	5.96345e+02	6.67000e+03	2.56925e-02	5.95833e+02
6707	5.99426e+02	6.70700e+03	2.58232e-02	5.98917e+02
6744	6.02490e+02	6.74400e+03	2.57591e-02	6.02000e+02
6781	6.05567e+02	6.78100e+03	2.56533e-02	6.05083e+02
6818	6.08663e+02	6.81800e+03	2.55336e-02	6.08167e+02
6855	6.11750e+02	6.85500e+03	2.56606e-02	6.11250e+02
6892	6.14811e+02	6.89200e+03	2.56000e-02	6.14333e+02
6929	6.17885e+02	6.92900e+03	2.55019e-02	6.17417e+02
6966	6.20978e+02	6.96600e+03	2.54296e-02	6.20500e+02
7003	6.24065e+02	7.00300e+03	2.55419e-02	6.23583e+02
7040	6.27143e+02	7.04000e+03	2.53315e-02	6.26667e+02
7077	6.30227e+02	7.07700e+03	2.54366e-02	6.29750e+02
7114	6.33278e+02	7.11400e+03	2.54075e-02	6.32833e+02
7151	6.36329e+02	7.15100e+03	2.53356e-02	6.35917e+02
7188	6.39388e+02	7.18800e+03	2.53786e-02	6.39000e+02
7225	6.42431e+02	7.22500e+03	2.52983e-02	6.42083e+02
7262	6.45504e+02	7.26200e+03	2.52536e-02	6.45167e+02
7299	6.48575e+02	7.29900e+03	2.51709e-02	6.48250e+02
7336	6.51648e+02	7.33600e+03	2.53118e-02	6.51333e+02
7373	6.54722e+02	7.37300e+03	2.51972e-02	6.54417e+02
7410	6.57803e+02	7.41000e+03	2.52561e-02	6.57500e+02
7447	6.60913e+02	7.44700e+03	2.51111e-02	6.60583e+02
7484	6.64007e+02	7.48400e+03	2.50969e-02	6.63667e+02
7521	6.67127e+02	7.52100e+03	2.51134e-02	6.66750e+02
7558	6.70213e+02	7.55800e+03	2.51331e-02	6.69833e+02
7595	6.73288e+02	7.59500e+03	2.50762e-02	6.72917e+02
7632	6.76365e+02	7.63200e+03	2.50190e-02	6.76000e+02
7669	6.79434e+02	7.66900e+03	2.51162e-02	6.79083e+02
7706	6.82536e+02	7.70600e+03	2.51041e-02	6.82167e+02
7743	6.85646e+02	7.74300e+03	2.49441e-02	6.85250e+02
7780	6.88756e+02	7.78000e+03	2.52346e-02	6.88333e+02
7817	6.91868e+02	7.81700e+03	2.52396e-02	6.91417e+02
7854	6.94969e+02	7.85400e+03	2.51455e-02	6.94500e+02
7891	6.98060e+02	7.89100e+03	2.50153e-02	6.97583e+02
7920	6.99561e+02	7.92000e+03	2.51074e-02	7.00000e+02