File: Experiments/TUBS/tga_nonisotherm/tga_dynamic_n2_dyn90_piece_3mg_r3.txt
index	ts	t	weight	tr
[#]	[°C]	[s]	[mg]	[°C]
630	1.27716e+02	6.30000e+02	3.06057e+00	1.34996e+02
632	1.31041e+02	6.32000e+02	3.06036e+00	1.37996e+02
634	1.34360e+02	6.34000e+02	3.06004e+00	1.40996e+02
636	1.37635e+02	6.36000e+02	3.05956e+00	1.43996e+02
638	1.40878e+02	6.38000e+02	3.05911e+00	1.46995e+02
640	1.44103e+02	6.40000e+02	3.05871e+00	1.49995e+02
642	1.47324e+02	6.42000e+02	3.05838e+00	1.52995e+02
644	1.50513e+02	6.44000e+02	3.05814e+00	1.55995e+02
646	1.53711e+02	6.46000e+02	3.05793e+00	1.58994e+02
648	1.56882e+02	6.48000e+02	3.05777e+00	1.61994e+02
650	1.60053e+02	6.50000e+02	3.05764e+00	1.64994e+02
652	1.63189e+02	6.52000e+02	3.05756e+00	1.67994e+02
654	1.66344e+02	6.54000e+02	3.05748e+00	1.70993e+02
656	1.69472e+02	6.56000e+02	3.05741e+00	1.73993e+02
658	1.72588e+02	6.58000e+02	3.05734e+00	1.76993e+02
660	1.75710e+02	6.60000e+02	3.05726e+00	1.79993e+02
662	1.78821e+02	6.62000e+02	3.05718e+00	1.82992e+02
664	1.81920e+02	6.64000e+02	3.05707e+00	1.85992e+02
666	1.85023e+02	6.66000e+02	3.05695e+00	1.88992e+02
668	1.88117e+02	6.68000e+02	3.05679e+00	1.91992e+02
670	1.91194e+02	6.70000e+02	3.05662e+00	1.94991e+02
672	1.94266e+02	6.72000e+02	3.05640e+00	1.97991e+02
674	1.97344e+02	6.74000e+02	3.05615e+00	2.00991e+02
676	2.00410e+02	6.76000e+02	3.05583e+00	2.03991e+02
678	2.03471e+02	6.78000e+02	3.05547e+00	2.06990e+02
680	2.06531e+02	6.80000e+02	3.05502e+00	2.09990e+02
682	2.09569e+02	6.82000e+02	3.05450e+00	2.12990e+02
684	2.12632e+02	6.84000e+02	3.05387e+00	2.15990e+02
686	2.15666e+02	6.86000e+02	3.05318e+00	2.18989e+02
688	2.18699e+02	6.88000e+02	3.05237e+00	2.21989e+02
690	2.21729e+02	6.90000e+02	3.05147e+00	2.24989e+02
692	2.24764e+02	6.92000e+02	3.05043e+00	2.27989e+02
694	2.27796e+02	6.94000e+02	3.04936e+00	2.30988e+02
696	2.30802e+02	6.96000e+02	3.04823e+00	2.33988e+02
698	2.33810e+02	6.98000e+02	3.04706e+00	2.36988e+02
700	2.36800e+02	7.00000e+02	3.04585e+00	2.39988e+02
702	2.39793e+02	7.02000e+02	3.04465e+00	2.42987e+02
704	2.42827e+02	7.04000e+02	3.04343e+00	2.45987e+02
706	2.45876e+02	7.06000e+02	3.04219e+00	2.48987e+02
708	2.48929e+02	7.08000e+02	3.04090e+00	2.51987e+02
710	2.51951e+02	7.10000e+02	3.03958e+00	2.54986e+02
712	2.54965e+02	7.12000e+02	3.03820e+00	2.57986e+02
714	2.57999e+02	7.14000e+02	3.03677e+00	2.60986e+02
716	2.61006e+02	7.16000e+02	3.03530e+00	2.63986e+02
718	2.64044e+02	7.18000e+02	3.03380e+00	2.66985e+02
720	2.67064e+02	7.20000e+02	3.03228e+00	2.69985e+02
722	2.70083e+02	7.22000e+02	3.03070e+00	2.72985e+02
724	2.73105e+02	7.24000e+02	3.02904e+00	2.75985e+02
726	2.76120e+02	7.26000e+02	3.02733e+00	2.78984e+02
728	2.79154e+02	7.28000e+02	3.02554e+00	2.81984e+02
730	2.82172e+02	7.30000e+02	3.02366e+00	2.84984e+02
732	2.85193e+02	7.32000e+02	3.02163e+00	2.87984e+02
734	2.88219e+02	7.34000e+02	3.01949e+00	2.90984e+02
736	2.91262e+02	7.36000e+02	3.01711e+00	2.93983e+02
738	2.94285e+02	7.38000e+02	3.01449e+00	2.96983e+02
740	2.97322e+02	7.40000e+02	3.01141e+00	2.99983e+02
742	3.00375e+02	7.42000e+02	3.00800e+00	3.02983e+02
744	3.03435e+02	7.44000e+02	3.00409e+00	3.05982e+02
746	3.06470e+02	7.46000e+02	3.00002e+00	3.08982e+02
748	3.09569e+02	7.48000e+02	2.99569e+00	3.11982e+02
750	3.12641e+02	7.50000e+02	2.99125e+00	3.14982e+02
752	3.15664e+02	7.52000e+02	2.98661e+00	3.17981e+02
754	3.18745e+02	7.54000e+02	2.98171e+00	3.20981e+02
756	3.21766e+02	7.56000e+02	2.97632e+00	3.23981e+02
758	3.24755e+02	7.58000e+02	2.97053e+00	3.26981e+02
760	3.27803e+02	7.60000e+02	2.96413e+00	3.29980e+02
762	3.30834e+02	7.62000e+02	2.95744e+00	3.32980e+02
764	3.33883e+02	7.64000e+02	2.95024e+00	3.35980e+02
766	3.36956e+02	7.66000e+02	2.94273e+00	3.38980e+02
768	3.40062e+02	7.68000e+02	2.93461e+00	3.41979e+02
770	3.43167e+02	7.70000e+02	2.92597e+00	3.44979e+02
772	3.46195e+02	7.72000e+02	2.91631e+00	3.47979e+02
774	3.49224e+02	7.74000e+02	2.90568e+00	3.50979e+02
776	3.52221e+02	7.76000e+02	2.89325e+00	3.53978e+02
778	3.55237e+02	7.78000e+02	2.87931e+00	3.56978e+02
780	3.58218e+02	7.80000e+02	2.86255e+00	3.59978e+02
782	3.61263e+02	7.82000e+02	2.84458e+00	3.62978e+02
784	3.64271e+02	7.84000e+02	2.82201e+00	3.65977e+02
786	3.67223e+02	7.86000e+02	2.79546e+00	3.68977e+02
788	3.70165e+02	7.88000e+02	2.76145e+00	3.71977e+02
790	3.73129e+02	7.90000e+02	2.72186e+00	3.74977e+02
792	3.76103e+02	7.92000e+02	2.67343e+00	3.77976e+02
794	3.79164e+02	7.94000e+02	2.61729e+00	3.80976e+02
796	3.82091e+02	7.96000e+02	2.55203e+00	3.83976e+02
798	3.85045e+02	7.98000e+02	2.47913e+00	3.86976e+02
800	3.87988e+02	8.00000e+02	2.39724e+00	3.89975e+02
802	3.90907e+02	8.02000e+02	2.30791e+00	3.92975e+02
804	3.93809e+02	8.04000e+02	2.21040e+00	3.95975e+02
806	3.96723e+02	8.06000e+02	2.10637e+00	3.98975e+02
808	3.99650e+02	8.08000e+02	1.99507e+00	4.01974e+02
810	4.02541e+02	8.10000e+02	1.87969e+00	4.04974e+02
812	4.05531e+02	8.12000e+02	1.75870e+00	4.07974e+02
814	4.08446e+02	8.14000e+02	1.63464e+00	4.10974e+02
816	4.11416e+02	8.16000e+02	1.50828e+00	4.13973e+02
818	4.14410e+02	8.18000e+02	1.38028e+00	4.16973e+02
820	4.17404e+02	8.20000e+02	1.24957e+00	4.19973e+02
822	4.20416e+02	8.22000e+02	1.11720e+00	4.22973e+02
824	4.23564e+02	8.24000e+02	9.82519e-01	4.25972e+02
826	4.26661e+02	8.26000e+02	8.47890e-01	4.28972e+02
828	4.29869e+02	8.28000e+02	7.14246e-01	4.31972e+02
830	4.33129e+02	8.30000e+02	5.81520e-01	4.34972e+02
832	4.36521e+02	8.32000e+02	4.56536e-01	4.37971e+02
834	4.40070e+02	8.34000e+02	3.45271e-01	4.40971e+02
836	4.43357e+02	8.36000e+02	2.51742e-01	4.43971e+02
838	4.46489e+02	8.38000e+02	1.77209e-01	4.46971e+02
840	4.49600e+02	8.40000e+02	1.20503e-01	4.49970e+02
842	4.52800e+02	8.42000e+02	8.11666e-02	4.52970e+02
844	4.55779e+02	8.44000e+02	5.29058e-02	4.55970e+02
846	4.58539e+02	8.46000e+02	3.28426e-02	4.58970e+02
848	4.61393e+02	8.48000e+02	2.08844e-02	4.61970e+02
850	4.64185e+02	8.50000e+02	1.17751e-02	4.64969e+02
852	4.67052e+02	8.52000e+02	6.80652e-03	4.67969e+02
854	4.69976e+02	8.54000e+02	2.55291e-03	4.70969e+02
856	4.72958e+02	8.56000e+02	1.76938e-04	4.73969e+02
858	4.75813e+02	8.58000e+02	-1.66059e-03	4.76968e+02
860	4.79312e+02	8.60000e+02	-2.64976e-03	4.79968e+02
862	4.82297e+02	8.62000e+02	-3.39398e-03	4.82968e+02
864	4.85105e+02	8.64000e+02	-3.77046e-03	4.85968e+02
866	4.87729e+02	8.66000e+02	-4.05645e-03	4.88967e+02
868	4.90734e+02	8.68000e+02	-4.19673e-03	4.91967e+02
870	4.93512e+02	8.70000e+02	-4.28922e-03	4.94967e+02
872	4.96141e+02	8.72000e+02	-4.32406e-03	4.97967e+02
874	4.99014e+02	8.74000e+02	-4.35317e-03	5.00966e+02
876	5.01794e+02	8.76000e+02	-4.36698e-03	5.03966e+02
878	5.04648e+02	8.78000e+02	-4.37118e-03	5.06966e+02
880	5.07744e+02	8.80000e+02	-4.38614e-03	5.09966e+02
882	5.10569e+02	8.82000e+02	-4.43529e-03	5.12965e+02
884	5.13371e+02	8.84000e+02	-4.51797e-03	5.15965e+02
886	5.16347e+02	8.86000e+02	-4.58375e-03	5.18965e+02
888	5.19249e+02	8.88000e+02	-4.62107e-03	5.21965e+02
890	5.22128e+02	8.90000e+02	-4.65959e-03	5.24964e+02
892	5.25122e+02	8.92000e+02	-4.70467e-03	5.27964e+02
894	5.27975e+02	8.94000e+02	-4.75849e-03	5.30964e+02
896	5.30974e+02	8.96000e+02	-4.82261e-03	5.33964e+02
898	5.34264e+02	8.98000e+02	-4.88144e-03	5.36963e+02
900	5.37162e+02	9.00000e+02	-4.93516e-03	5.39963e+02
902	5.39941e+02	9.02000e+02	-4.98019e-03	5.42963e+02
904	5.42782e+02	9.04000e+02	-5.00838e-03	5.45963e+02
906	5.45721e+02	9.06000e+02	-5.02387e-03	5.48962e+02
908	5.48767e+02	9.08000e+02	-5.02298e-03	5.51962e+02
910	5.51722e+02	9.10000e+02	-5.03254e-03	5.54962e+02
912	5.54831e+02	9.12000e+02	-5.05173e-03	5.57962e+02
914	5.57533e+02	9.14000e+02	-5.06650e-03	5.60961e+02
916	5.60354e+02	9.16000e+02	-5.06828e-03	5.63961e+02
918	5.63217e+02	9.18000e+02	-5.06122e-03	5.66961e+02
920	5.66105e+02	9.20000e+02	-5.05353e-03	5.69961e+02
922	5.69014e+02	9.22000e+02	-5.05224e-03	5.72960e+02
924	5.71916e+02	9.24000e+02	-5.05934e-03	5.75960e+02
926	5.74825e+02	9.26000e+02	-5.07886e-03	5.78960e+02
928	5.77720e+02	9.28000e+02	-5.12147e-03	5.81960e+02
930	5.80716e+02	9.30000e+02	-5.17237e-03	5.84959e+02
932	5.83700e+02	9.32000e+02	-5.21593e-03	5.87959e+02
934	5.86864e+02	9.34000e+02	-5.23052e-03	5.90959e+02
936	5.89995e+02	9.36000e+02	-5.21141e-03	5.93959e+02
938	5.94146e+02	9.38000e+02	-5.19770e-03	5.96958e+02
940	5.97040e+02	9.40000e+02	-5.19180e-03	5.99958e+02
942	6.00076e+02	9.42000e+02	-5.19058e-03	6.02958e+02
944	6.03046e+02	9.44000e+02	-5.21239e-03	6.05958e+02
946	6.05899e+02	9.46000e+02	-5.24896e-03	6.08957e+02
948	6.08551e+02	9.48000e+02	-5.29257e-03	6.11957e+02
950	6.11113e+02	9.50000e+02	-5.30973e-03	6.14957e+02
952	6.13899e+02	9.52000e+02	-5.29109e-03	6.17957e+02
954	6.16659e+02	9.54000e+02	-5.26764e-03	6.20956e+02
956	6.19481e+02	9.56000e+02	-5.23670e-03	6.23956e+02
958	6.22412e+02	9.58000e+02	-5.21042e-03	6.26956e+02
960	6.25330e+02	9.60000e+02	-5.19229e-03	6.29956e+02
962	6.28268e+02	9.62000e+02	-5.18398e-03	6.32956e+02
964	6.31216e+02	9.64000e+02	-5.18336e-03	6.35955e+02
966	6.34180e+02	9.66000e+02	-5.17401e-03	6.38955e+02
968	6.37134e+02	9.68000e+02	-5.16941e-03	6.41955e+02
970	6.40089e+02	9.70000e+02	-5.19753e-03	6.44954e+02
972	6.43054e+02	9.72000e+02	-5.27193e-03	6.47954e+02
974	6.45981e+02	9.74000e+02	-5.34652e-03	6.50954e+02
976	6.48900e+02	9.76000e+02	-5.40961e-03	6.53954e+02
978	6.51888e+02	9.78000e+02	-5.44157e-03	6.56953e+02
980	6.54925e+02	9.80000e+02	-5.41960e-03	6.59953e+02
982	6.56708e+02	9.82000e+02	-5.34395e-03	6.62953e+02
984	6.58312e+02	9.84000e+02	-5.18015e-03	6.65953e+02
986	6.60399e+02	9.86000e+02	-5.00964e-03	6.68953e+02
988	6.62508e+02	9.88000e+02	-4.87126e-03	6.71952e+02
990	6.64389e+02	9.90000e+02	-4.82471e-03	6.74952e+02
992	6.66258e+02	9.92000e+02	-4.90914e-03	6.77952e+02
994	6.67993e+02	9.94000e+02	-5.02020e-03	6.80952e+02
996	6.69582e+02	9.96000e+02	-5.15974e-03	6.83951e+02
998	6.71172e+02	9.98000e+02	-5.26143e-03	6.86951e+02
1000	6.72619e+02	1.00000e+03	-5.29929e-03	6.89951e+02
1002	6.74017e+02	1.00200e+03	-5.34039e-03	6.92951e+02
1004	6.75294e+02	1.00400e+03	-5.35447e-03	6.95950e+02
1006	6.76624e+02	1.00600e+03	-5.37936e-03	6.98950e+02
1007	6.77290e+02	1.00700e+03	-5.39070e-03	7.00000e+02