File: Experiments/TUBS/tga_nonisotherm/tga_dynamic_n2_dyn60_powder_12mg_r1.txt
index	ts	t	weight	tr
[#]	[°C]	[s]	[mg]	[°C]
643	1.30494e+02	6.43000e+02	1.19784e+01	1.33000e+02
646	1.33640e+02	6.46000e+02	1.19782e+01	1.36000e+02
649	1.36742e+02	6.49000e+02	1.19778e+01	1.39000e+02
652	1.39864e+02	6.52000e+02	1.19773e+01	1.42000e+02
655	1.42956e+02	6.55000e+02	1.19767e+01	1.45000e+02
658	1.46034e+02	6.58000e+02	1.19756e+01	1.48000e+02
661	1.49095e+02	6.61000e+02	1.19741e+01	1.51000e+02
664	1.52214e+02	6.64000e+02	1.19721e+01	1.54000e+02
667	1.55306e+02	6.67000e+02	1.19697e+01	1.57000e+02
670	1.58376e+02	6.70000e+02	1.19666e+01	1.60000e+02
673	1.61453e+02	6.73000e+02	1.19630e+01	1.63000e+02
676	1.64528e+02	6.76000e+02	1.19590e+01	1.66000e+02
679	1.67600e+02	6.79000e+02	1.19544e+01	1.69000e+02
682	1.70671e+02	6.82000e+02	1.19491e+01	1.72000e+02
685	1.73746e+02	6.85000e+02	1.19432e+01	1.75000e+02
688	1.76811e+02	6.88000e+02	1.19365e+01	1.78000e+02
691	1.79878e+02	6.91000e+02	1.19288e+01	1.81000e+02
694	1.82946e+02	6.94000e+02	1.19193e+01	1.84000e+02
697	1.85997e+02	6.97000e+02	1.19079e+01	1.87000e+02
700	1.89064e+02	7.00000e+02	1.18941e+01	1.90000e+02
703	1.92105e+02	7.03000e+02	1.18778e+01	1.93000e+02
706	1.95150e+02	7.06000e+02	1.18573e+01	1.96000e+02
709	1.98199e+02	7.09000e+02	1.18332e+01	1.99000e+02
712	2.01251e+02	7.12000e+02	1.18056e+01	2.02000e+02
715	2.04275e+02	7.15000e+02	1.17751e+01	2.05000e+02
718	2.07293e+02	7.18000e+02	1.17412e+01	2.08000e+02
721	2.10357e+02	7.21000e+02	1.17060e+01	2.11000e+02
724	2.13409e+02	7.24000e+02	1.16708e+01	2.14000e+02
727	2.16448e+02	7.27000e+02	1.16367e+01	2.17000e+02
730	2.19516e+02	7.30000e+02	1.16055e+01	2.20000e+02
733	2.22608e+02	7.33000e+02	1.15782e+01	2.23000e+02
736	2.25740e+02	7.36000e+02	1.15552e+01	2.26000e+02
739	2.28822e+02	7.39000e+02	1.15359e+01	2.29000e+02
742	2.31923e+02	7.42000e+02	1.15214e+01	2.32000e+02
745	2.35019e+02	7.45000e+02	1.15092e+01	2.35000e+02
748	2.38103e+02	7.48000e+02	1.14986e+01	2.38000e+02
751	2.41187e+02	7.51000e+02	1.14886e+01	2.41000e+02
754	2.44264e+02	7.54000e+02	1.14791e+01	2.44000e+02
757	2.47344e+02	7.57000e+02	1.14696e+01	2.47000e+02
760	2.50500e+02	7.60000e+02	1.14601e+01	2.50000e+02
763	2.53498e+02	7.63000e+02	1.14507e+01	2.53000e+02
766	2.56543e+02	7.66000e+02	1.14414e+01	2.56000e+02
769	2.59592e+02	7.69000e+02	1.14322e+01	2.59000e+02
772	2.62654e+02	7.72000e+02	1.14234e+01	2.62000e+02
775	2.65674e+02	7.75000e+02	1.14149e+01	2.65000e+02
778	2.68708e+02	7.78000e+02	1.14068e+01	2.68000e+02
781	2.71782e+02	7.81000e+02	1.13989e+01	2.71000e+02
784	2.74830e+02	7.84000e+02	1.13912e+01	2.74000e+02
787	2.77893e+02	7.87000e+02	1.13834e+01	2.77000e+02
790	2.80952e+02	7.90000e+02	1.13753e+01	2.80000e+02
793	2.84013e+02	7.93000e+02	1.13668e+01	2.83000e+02
796	2.87071e+02	7.96000e+02	1.13575e+01	2.86000e+02
799	2.90132e+02	7.99000e+02	1.13473e+01	2.89000e+02
802	2.93212e+02	8.02000e+02	1.13352e+01	2.92000e+02
805	2.96274e+02	8.05000e+02	1.13213e+01	2.95000e+02
808	2.99336e+02	8.08000e+02	1.13051e+01	2.98000e+02
811	3.02396e+02	8.11000e+02	1.12865e+01	3.01000e+02
814	3.05447e+02	8.14000e+02	1.12642e+01	3.04000e+02
817	3.08499e+02	8.17000e+02	1.12383e+01	3.07000e+02
820	3.11525e+02	8.20000e+02	1.12089e+01	3.10000e+02
823	3.14521e+02	8.23000e+02	1.11763e+01	3.13000e+02
826	3.17493e+02	8.26000e+02	1.11390e+01	3.16000e+02
829	3.20467e+02	8.29000e+02	1.10984e+01	3.19000e+02
832	3.23398e+02	8.32000e+02	1.10547e+01	3.22000e+02
835	3.26274e+02	8.35000e+02	1.10086e+01	3.25000e+02
838	3.29089e+02	8.38000e+02	1.09594e+01	3.28000e+02
841	3.31907e+02	8.41000e+02	1.09078e+01	3.31000e+02
844	3.34828e+02	8.44000e+02	1.08536e+01	3.34000e+02
847	3.37773e+02	8.47000e+02	1.07962e+01	3.37000e+02
850	3.40746e+02	8.50000e+02	1.07336e+01	3.40000e+02
853	3.43728e+02	8.53000e+02	1.06631e+01	3.43000e+02
856	3.46704e+02	8.56000e+02	1.05829e+01	3.46000e+02
859	3.49660e+02	8.59000e+02	1.04907e+01	3.49000e+02
862	3.52623e+02	8.62000e+02	1.03841e+01	3.52000e+02
865	3.55562e+02	8.65000e+02	1.02596e+01	3.55000e+02
868	3.58489e+02	8.68000e+02	1.01159e+01	3.58000e+02
871	3.61405e+02	8.71000e+02	9.95258e+00	3.61000e+02
874	3.64319e+02	8.74000e+02	9.76490e+00	3.64000e+02
877	3.67241e+02	8.77000e+02	9.55450e+00	3.67000e+02
880	3.70128e+02	8.80000e+02	9.31857e+00	3.70000e+02
883	3.72990e+02	8.83000e+02	9.05766e+00	3.73000e+02
886	3.75825e+02	8.86000e+02	8.77186e+00	3.76000e+02
889	3.78657e+02	8.89000e+02	8.46516e+00	3.79000e+02
892	3.81464e+02	8.92000e+02	8.13619e+00	3.82000e+02
895	3.84276e+02	8.95000e+02	7.78973e+00	3.85000e+02
898	3.87124e+02	8.98000e+02	7.42979e+00	3.88000e+02
901	3.90033e+02	9.01000e+02	7.05586e+00	3.91000e+02
904	3.92914e+02	9.04000e+02	6.66628e+00	3.94000e+02
907	3.95756e+02	9.07000e+02	6.26556e+00	3.97000e+02
910	3.98626e+02	9.10000e+02	5.85144e+00	4.00000e+02
913	4.01551e+02	9.13000e+02	5.42722e+00	4.03000e+02
916	4.04436e+02	9.16000e+02	4.99839e+00	4.06000e+02
919	4.07351e+02	9.19000e+02	4.56462e+00	4.09000e+02
922	4.10262e+02	9.22000e+02	4.12407e+00	4.12000e+02
925	4.13250e+02	9.25000e+02	3.67036e+00	4.15000e+02
928	4.16278e+02	9.28000e+02	3.19905e+00	4.18000e+02
931	4.19410e+02	9.31000e+02	2.72311e+00	4.21000e+02
934	4.22627e+02	9.34000e+02	2.24808e+00	4.24000e+02
937	4.25946e+02	9.37000e+02	1.79405e+00	4.27000e+02
940	4.29371e+02	9.40000e+02	1.38700e+00	4.30000e+02
943	4.32796e+02	9.43000e+02	1.04102e+00	4.33000e+02
946	4.36154e+02	9.46000e+02	7.67954e-01	4.36000e+02
949	4.39520e+02	9.49000e+02	5.56647e-01	4.39000e+02
952	4.42823e+02	9.52000e+02	4.01500e-01	4.42000e+02
955	4.46129e+02	9.55000e+02	2.90588e-01	4.45000e+02
958	4.49365e+02	9.58000e+02	2.18320e-01	4.48000e+02
961	4.52581e+02	9.61000e+02	1.68517e-01	4.51000e+02
964	4.55780e+02	9.64000e+02	1.37011e-01	4.54000e+02
967	4.58930e+02	9.67000e+02	1.14246e-01	4.57000e+02
970	4.62043e+02	9.70000e+02	1.01825e-01	4.60000e+02
973	4.65121e+02	9.73000e+02	9.29476e-02	4.63000e+02
976	4.68209e+02	9.76000e+02	8.69275e-02	4.66000e+02
979	4.71277e+02	9.79000e+02	8.27472e-02	4.69000e+02
982	4.74308e+02	9.82000e+02	8.05601e-02	4.72000e+02
985	4.77359e+02	9.85000e+02	7.92172e-02	4.75000e+02
988	4.80322e+02	9.88000e+02	7.84011e-02	4.78000e+02
991	4.83343e+02	9.91000e+02	7.78368e-02	4.81000e+02
994	4.86367e+02	9.94000e+02	7.74902e-02	4.84000e+02
997	4.89452e+02	9.97000e+02	7.72204e-02	4.87000e+02
1000	4.92503e+02	1.00000e+03	7.70258e-02	4.90000e+02
1003	4.95505e+02	1.00300e+03	7.68750e-02	4.93000e+02
1006	4.98502e+02	1.00600e+03	7.67556e-02	4.96000e+02
1009	5.01494e+02	1.00900e+03	7.66318e-02	4.99000e+02
1012	5.04490e+02	1.01200e+03	7.65118e-02	5.02000e+02
1015	5.07482e+02	1.01500e+03	7.63911e-02	5.05000e+02
1018	5.10484e+02	1.01800e+03	7.62726e-02	5.08000e+02
1021	5.13487e+02	1.02100e+03	7.61778e-02	5.11000e+02
1024	5.16516e+02	1.02400e+03	7.61097e-02	5.14000e+02
1027	5.19616e+02	1.02700e+03	7.60369e-02	5.17000e+02
1030	5.22673e+02	1.03000e+03	7.59578e-02	5.20000e+02
1033	5.25724e+02	1.03300e+03	7.58787e-02	5.23000e+02
1036	5.29089e+02	1.03600e+03	7.57772e-02	5.26000e+02
1039	5.32104e+02	1.03900e+03	7.56718e-02	5.29000e+02
1042	5.35049e+02	1.04200e+03	7.55662e-02	5.32000e+02
1045	5.38008e+02	1.04500e+03	7.54624e-02	5.35000e+02
1048	5.40790e+02	1.04800e+03	7.53198e-02	5.38000e+02
1051	5.43474e+02	1.05100e+03	7.51736e-02	5.41000e+02
1054	5.46296e+02	1.05400e+03	7.50907e-02	5.44000e+02
1057	5.49140e+02	1.05700e+03	7.50906e-02	5.47000e+02
1060	5.52028e+02	1.06000e+03	7.50799e-02	5.50000e+02
1063	5.54937e+02	1.06300e+03	7.50871e-02	5.53000e+02
1066	5.57906e+02	1.06600e+03	7.51332e-02	5.56000e+02
1069	5.60872e+02	1.06900e+03	7.51617e-02	5.59000e+02
1072	5.63849e+02	1.07200e+03	7.51012e-02	5.62000e+02
1075	5.66884e+02	1.07500e+03	7.50128e-02	5.65000e+02
1078	5.69963e+02	1.07800e+03	7.49332e-02	5.68000e+02
1081	5.73182e+02	1.08100e+03	7.48806e-02	5.71000e+02
1084	5.76120e+02	1.08400e+03	7.48260e-02	5.74000e+02
1087	5.79143e+02	1.08700e+03	7.47877e-02	5.77000e+02
1090	5.82046e+02	1.09000e+03	7.47425e-02	5.80000e+02
1093	5.85011e+02	1.09300e+03	7.46701e-02	5.83000e+02
1096	5.87700e+02	1.09600e+03	7.46183e-02	5.86000e+02
1099	5.90580e+02	1.09900e+03	7.45814e-02	5.89000e+02
1102	5.93457e+02	1.10200e+03	7.45475e-02	5.92000e+02
1105	5.96346e+02	1.10500e+03	7.44930e-02	5.95000e+02
1108	5.99216e+02	1.10800e+03	7.43997e-02	5.98000e+02
1111	6.02067e+02	1.11100e+03	7.42673e-02	6.01000e+02
1114	6.04941e+02	1.11400e+03	7.41112e-02	6.04000e+02
1117	6.07777e+02	1.11700e+03	7.39931e-02	6.07000e+02
1120	6.10620e+02	1.12000e+03	7.39102e-02	6.10000e+02
1123	6.13482e+02	1.12300e+03	7.38382e-02	6.13000e+02
1126	6.16354e+02	1.12600e+03	7.37704e-02	6.16000e+02
1129	6.19142e+02	1.12900e+03	7.37127e-02	6.19000e+02
1132	6.22031e+02	1.13200e+03	7.37162e-02	6.22000e+02
1135	6.24862e+02	1.13500e+03	7.37574e-02	6.25000e+02
1138	6.27806e+02	1.13800e+03	7.37933e-02	6.28000e+02
1141	6.30726e+02	1.14100e+03	7.37445e-02	6.31000e+02
1144	6.33638e+02	1.14400e+03	7.36554e-02	6.34000e+02
1147	6.36592e+02	1.14700e+03	7.35702e-02	6.37000e+02
1150	6.39562e+02	1.15000e+03	7.35067e-02	6.40000e+02
1153	6.42497e+02	1.15300e+03	7.34723e-02	6.43000e+02
1156	6.45468e+02	1.15600e+03	7.34538e-02	6.46000e+02
1159	6.48428e+02	1.15900e+03	7.33979e-02	6.49000e+02
1162	6.51442e+02	1.16200e+03	7.32907e-02	6.52000e+02
1165	6.54414e+02	1.16500e+03	7.31797e-02	6.55000e+02
1168	6.57418e+02	1.16800e+03	7.30997e-02	6.58000e+02
1171	6.60437e+02	1.17100e+03	7.30646e-02	6.61000e+02
1174	6.63467e+02	1.17400e+03	7.30878e-02	6.64000e+02
1177	6.66435e+02	1.17700e+03	7.31132e-02	6.67000e+02
1180	6.69450e+02	1.18000e+03	7.30986e-02	6.70000e+02
1183	6.72461e+02	1.18300e+03	7.30349e-02	6.73000e+02
1186	6.74195e+02	1.18600e+03	7.29693e-02	6.76000e+02
1189	6.76149e+02	1.18900e+03	7.29965e-02	6.79000e+02
1192	6.78231e+02	1.19200e+03	7.30193e-02	6.82000e+02
1195	6.80083e+02	1.19500e+03	7.29902e-02	6.85000e+02
1198	6.81802e+02	1.19800e+03	7.28877e-02	6.88000e+02
1201	6.83580e+02	1.20100e+03	7.27920e-02	6.91000e+02
1204	6.85018e+02	1.20400e+03	7.27208e-02	6.94000e+02
1207	6.86402e+02	1.20700e+03	7.26566e-02	6.97000e+02
1210	6.87637e+02	1.21000e+03	7.25928e-02	7.00000e+02