File: Experiments/TUBS/tga_nonisotherm/tga_dynamic_n2_dyn5_powder_2mg_r3.txt
index	ts	t	weight	tr
[#]	[°C]	[s]	[mg]	[°C]
1083	1.31320e+02	1.08300e+03	2.04515e+00	1.30250e+02
1120	1.34448e+02	1.12000e+03	2.04447e+00	1.33333e+02
1157	1.37556e+02	1.15700e+03	2.04385e+00	1.36417e+02
1194	1.40680e+02	1.19400e+03	2.04296e+00	1.39500e+02
1231	1.43803e+02	1.23100e+03	2.04178e+00	1.42583e+02
1268	1.46911e+02	1.26800e+03	2.04053e+00	1.45667e+02
1305	1.50037e+02	1.30500e+03	2.03896e+00	1.48750e+02
1342	1.53156e+02	1.34200e+03	2.03720e+00	1.51833e+02
1379	1.56276e+02	1.37900e+03	2.03512e+00	1.54917e+02
1416	1.59387e+02	1.41600e+03	2.03233e+00	1.58000e+02
1453	1.62508e+02	1.45300e+03	2.02831e+00	1.61083e+02
1490	1.65618e+02	1.49000e+03	2.02279e+00	1.64167e+02
1527	1.68742e+02	1.52700e+03	2.01551e+00	1.67250e+02
1564	1.71849e+02	1.56400e+03	2.00687e+00	1.70333e+02
1601	1.74959e+02	1.60100e+03	1.99724e+00	1.73417e+02
1638	1.78073e+02	1.63800e+03	1.98766e+00	1.76500e+02
1675	1.81182e+02	1.67500e+03	1.97885e+00	1.79583e+02
1712	1.84307e+02	1.71200e+03	1.97144e+00	1.82667e+02
1749	1.87432e+02	1.74900e+03	1.96606e+00	1.85750e+02
1786	1.90545e+02	1.78600e+03	1.96228e+00	1.88833e+02
1823	1.93660e+02	1.82300e+03	1.95993e+00	1.91917e+02
1860	1.96755e+02	1.86000e+03	1.95810e+00	1.95000e+02
1897	1.99833e+02	1.89700e+03	1.95642e+00	1.98083e+02
1934	2.02913e+02	1.93400e+03	1.95505e+00	2.01167e+02
1971	2.05998e+02	1.97100e+03	1.95375e+00	2.04250e+02
2008	2.09091e+02	2.00800e+03	1.95223e+00	2.07333e+02
2045	2.12170e+02	2.04500e+03	1.95142e+00	2.10417e+02
2082	2.15257e+02	2.08200e+03	1.95040e+00	2.13500e+02
2119	2.18346e+02	2.11900e+03	1.94971e+00	2.16583e+02
2156	2.21436e+02	2.15600e+03	1.94907e+00	2.19667e+02
2193	2.24523e+02	2.19300e+03	1.94839e+00	2.22750e+02
2230	2.27607e+02	2.23000e+03	1.94801e+00	2.25833e+02
2267	2.30689e+02	2.26700e+03	1.94740e+00	2.28917e+02
2304	2.33758e+02	2.30400e+03	1.94688e+00	2.32000e+02
2341	2.36845e+02	2.34100e+03	1.94621e+00	2.35083e+02
2378	2.39920e+02	2.37800e+03	1.94580e+00	2.38167e+02
2415	2.42987e+02	2.41500e+03	1.94511e+00	2.41250e+02
2452	2.46070e+02	2.45200e+03	1.94447e+00	2.44333e+02
2489	2.49161e+02	2.48900e+03	1.94348e+00	2.47417e+02
2526	2.52235e+02	2.52600e+03	1.94256e+00	2.50500e+02
2563	2.55289e+02	2.56300e+03	1.94149e+00	2.53583e+02
2600	2.58368e+02	2.60000e+03	1.93994e+00	2.56667e+02
2637	2.61429e+02	2.63700e+03	1.93815e+00	2.59750e+02
2674	2.64522e+02	2.67400e+03	1.93621e+00	2.62833e+02
2711	2.67612e+02	2.71100e+03	1.93359e+00	2.65917e+02
2748	2.70702e+02	2.74800e+03	1.93027e+00	2.69000e+02
2785	2.73808e+02	2.78500e+03	1.92627e+00	2.72083e+02
2822	2.76900e+02	2.82200e+03	1.92156e+00	2.75167e+02
2859	2.80007e+02	2.85900e+03	1.91549e+00	2.78250e+02
2896	2.83128e+02	2.89600e+03	1.90836e+00	2.81333e+02
2933	2.86188e+02	2.93300e+03	1.90026e+00	2.84417e+02
2970	2.89241e+02	2.97000e+03	1.89141e+00	2.87500e+02
3007	2.92334e+02	3.00700e+03	1.88125e+00	2.90583e+02
3044	2.95420e+02	3.04400e+03	1.87070e+00	2.93667e+02
3081	2.98652e+02	3.08100e+03	1.86005e+00	2.96750e+02
3118	3.02016e+02	3.11800e+03	1.84925e+00	2.99833e+02
3155	3.05133e+02	3.15500e+03	1.83810e+00	3.02917e+02
3192	3.08260e+02	3.19200e+03	1.82615e+00	3.06000e+02
3229	3.11339e+02	3.22900e+03	1.81284e+00	3.09083e+02
3266	3.14432e+02	3.26600e+03	1.79751e+00	3.12167e+02
3303	3.17504e+02	3.30300e+03	1.77909e+00	3.15250e+02
3340	3.20592e+02	3.34000e+03	1.75663e+00	3.18333e+02
3377	3.23695e+02	3.37700e+03	1.72897e+00	3.21417e+02
3414	3.26816e+02	3.41400e+03	1.69502e+00	3.24500e+02
3451	3.30135e+02	3.45100e+03	1.65324e+00	3.27583e+02
3488	3.33285e+02	3.48800e+03	1.60257e+00	3.30667e+02
3525	3.36441e+02	3.52500e+03	1.54232e+00	3.33750e+02
3562	3.39821e+02	3.56200e+03	1.47166e+00	3.36833e+02
3599	3.43005e+02	3.59900e+03	1.39107e+00	3.39917e+02
3636	3.46230e+02	3.63600e+03	1.30145e+00	3.43000e+02
3673	3.49303e+02	3.67300e+03	1.20370e+00	3.46083e+02
3710	3.52409e+02	3.71000e+03	1.09882e+00	3.49167e+02
3747	3.55507e+02	3.74700e+03	9.90026e-01	3.52250e+02
3784	3.58639e+02	3.78400e+03	8.79193e-01	3.55333e+02
3821	3.61723e+02	3.82100e+03	7.66828e-01	3.58417e+02
3858	3.64850e+02	3.85800e+03	6.55700e-01	3.61500e+02
3895	3.67842e+02	3.89500e+03	5.49613e-01	3.64583e+02
3932	3.70765e+02	3.93200e+03	4.51992e-01	3.67667e+02
3969	3.73897e+02	3.96900e+03	3.65137e-01	3.70750e+02
4006	3.76922e+02	4.00600e+03	2.89092e-01	3.73833e+02
4043	3.79874e+02	4.04300e+03	2.24621e-01	3.76917e+02
4080	3.82820e+02	4.08000e+03	1.71352e-01	3.80000e+02
4117	3.85808e+02	4.11700e+03	1.28422e-01	3.83083e+02
4154	3.88831e+02	4.15400e+03	9.41119e-02	3.86167e+02
4191	3.91884e+02	4.19100e+03	6.81352e-02	3.89250e+02
4228	3.94984e+02	4.22800e+03	4.84857e-02	3.92333e+02
4265	3.98000e+02	4.26500e+03	3.47176e-02	3.95417e+02
4302	4.01003e+02	4.30200e+03	2.48900e-02	3.98500e+02
4339	4.04064e+02	4.33900e+03	1.78179e-02	4.01583e+02
4376	4.07115e+02	4.37600e+03	1.29683e-02	4.04667e+02
4413	4.10227e+02	4.41300e+03	9.64626e-03	4.07750e+02
4450	4.13323e+02	4.45000e+03	7.45559e-03	4.10833e+02
4487	4.16833e+02	4.48700e+03	6.08015e-03	4.13917e+02
4524	4.19889e+02	4.52400e+03	5.32104e-03	4.17000e+02
4561	4.22671e+02	4.56100e+03	4.92950e-03	4.20083e+02
4598	4.25613e+02	4.59800e+03	4.56634e-03	4.23167e+02
4635	4.28520e+02	4.63500e+03	4.39548e-03	4.26250e+02
4672	4.31142e+02	4.67200e+03	4.71692e-03	4.29333e+02
4709	4.34127e+02	4.70900e+03	4.20167e-03	4.32417e+02
4746	4.37132e+02	4.74600e+03	3.97257e-03	4.35500e+02
4783	4.40138e+02	4.78300e+03	4.03374e-03	4.38583e+02
4820	4.43138e+02	4.82000e+03	3.27525e-03	4.41667e+02
4857	4.46146e+02	4.85700e+03	3.87902e-03	4.44750e+02
4894	4.49132e+02	4.89400e+03	3.83367e-03	4.47833e+02
4931	4.52125e+02	4.93100e+03	3.77039e-03	4.50917e+02
4968	4.55121e+02	4.96800e+03	3.80405e-03	4.54000e+02
5005	4.58130e+02	5.00500e+03	3.78708e-03	4.57083e+02
5042	4.61163e+02	5.04200e+03	3.73688e-03	4.60167e+02
5079	4.64192e+02	5.07900e+03	3.72774e-03	4.63250e+02
5116	4.67213e+02	5.11600e+03	3.73618e-03	4.66333e+02
5153	4.70264e+02	5.15300e+03	3.58276e-03	4.69417e+02
5190	4.73294e+02	5.19000e+03	3.68709e-03	4.72500e+02
5227	4.76320e+02	5.22700e+03	3.72606e-03	4.75583e+02
5264	4.79362e+02	5.26400e+03	3.67059e-03	4.78667e+02
5301	4.82391e+02	5.30100e+03	3.55969e-03	4.81750e+02
5338	4.85436e+02	5.33800e+03	3.68745e-03	4.84833e+02
5375	4.88487e+02	5.37500e+03	3.72416e-03	4.87917e+02
5412	4.91549e+02	5.41200e+03	3.79117e-03	4.91000e+02
5449	4.94599e+02	5.44900e+03	3.69841e-03	4.94083e+02
5486	4.97659e+02	5.48600e+03	3.62000e-03	4.97167e+02
5523	5.00730e+02	5.52300e+03	3.61877e-03	5.00250e+02
5560	5.03809e+02	5.56000e+03	3.71832e-03	5.03333e+02
5597	5.06886e+02	5.59700e+03	3.81429e-03	5.06417e+02
5634	5.09948e+02	5.63400e+03	3.84141e-03	5.09500e+02
5671	5.13012e+02	5.67100e+03	3.88263e-03	5.12583e+02
5708	5.16083e+02	5.70800e+03	3.95807e-03	5.15667e+02
5745	5.19159e+02	5.74500e+03	3.90270e-03	5.18750e+02
5782	5.22235e+02	5.78200e+03	3.95525e-03	5.21833e+02
5819	5.25301e+02	5.81900e+03	3.89907e-03	5.24917e+02
5856	5.28408e+02	5.85600e+03	3.93201e-03	5.28000e+02
5893	5.31507e+02	5.89300e+03	4.07223e-03	5.31083e+02
5930	5.34554e+02	5.93000e+03	4.14486e-03	5.34167e+02
5967	5.37621e+02	5.96700e+03	4.02519e-03	5.37250e+02
6004	5.40689e+02	6.00400e+03	4.05562e-03	5.40333e+02
6041	5.43767e+02	6.04100e+03	4.01439e-03	5.43417e+02
6078	5.46880e+02	6.07800e+03	4.06650e-03	5.46500e+02
6115	5.49987e+02	6.11500e+03	4.21013e-03	5.49583e+02
6152	5.53111e+02	6.15200e+03	4.05535e-03	5.52667e+02
6189	5.56218e+02	6.18900e+03	4.19242e-03	5.55750e+02
6226	5.59323e+02	6.22600e+03	4.24623e-03	5.58833e+02
6263	5.62444e+02	6.26300e+03	4.26299e-03	5.61917e+02
6300	5.65581e+02	6.30000e+03	4.24438e-03	5.65000e+02
6337	5.68671e+02	6.33700e+03	4.07521e-03	5.68083e+02
6374	5.71789e+02	6.37400e+03	3.96815e-03	5.71167e+02
6411	5.74909e+02	6.41100e+03	4.13638e-03	5.74250e+02
6448	5.78018e+02	6.44800e+03	4.13626e-03	5.77333e+02
6485	5.81143e+02	6.48500e+03	4.25460e-03	5.80417e+02
6522	5.84196e+02	6.52200e+03	4.23543e-03	5.83500e+02
6559	5.87260e+02	6.55900e+03	4.31974e-03	5.86583e+02
6596	5.90336e+02	6.59600e+03	4.28819e-03	5.89667e+02
6633	5.93392e+02	6.63300e+03	4.21671e-03	5.92750e+02
6670	5.96444e+02	6.67000e+03	4.24979e-03	5.95833e+02
6707	5.99488e+02	6.70700e+03	4.34140e-03	5.98917e+02
6744	6.02538e+02	6.74400e+03	4.37575e-03	6.02000e+02
6781	6.05553e+02	6.78100e+03	4.19290e-03	6.05083e+02
6818	6.08616e+02	6.81800e+03	4.26174e-03	6.08167e+02
6855	6.11657e+02	6.85500e+03	4.35573e-03	6.11250e+02
6892	6.14723e+02	6.89200e+03	4.15202e-03	6.14333e+02
6929	6.17763e+02	6.92900e+03	4.14105e-03	6.17417e+02
6966	6.20815e+02	6.96600e+03	4.14723e-03	6.20500e+02
7003	6.23903e+02	7.00300e+03	4.23055e-03	6.23583e+02
7040	6.26985e+02	7.04000e+03	4.17927e-03	6.26667e+02
7077	6.30058e+02	7.07700e+03	4.25102e-03	6.29750e+02
7114	6.33166e+02	7.11400e+03	4.15941e-03	6.32833e+02
7151	6.36255e+02	7.15100e+03	4.33008e-03	6.35917e+02
7188	6.39350e+02	7.18800e+03	4.19794e-03	6.39000e+02
7225	6.42414e+02	7.22500e+03	4.15954e-03	6.42083e+02
7262	6.45484e+02	7.26200e+03	4.00023e-03	6.45167e+02
7299	6.48589e+02	7.29900e+03	4.08344e-03	6.48250e+02
7336	6.51691e+02	7.33600e+03	4.15876e-03	6.51333e+02
7373	6.54785e+02	7.37300e+03	4.19444e-03	6.54417e+02
7410	6.57856e+02	7.41000e+03	4.17514e-03	6.57500e+02
7447	6.60947e+02	7.44700e+03	4.02559e-03	6.60583e+02
7484	6.64034e+02	7.48400e+03	4.05446e-03	6.63667e+02
7521	6.67141e+02	7.52100e+03	4.23804e-03	6.66750e+02
7558	6.70257e+02	7.55800e+03	4.41921e-03	6.69833e+02
7595	6.73352e+02	7.59500e+03	4.41360e-03	6.72917e+02
7632	6.76472e+02	7.63200e+03	4.29230e-03	6.76000e+02
7669	6.79561e+02	7.66900e+03	4.36204e-03	6.79083e+02
7706	6.82618e+02	7.70600e+03	4.28765e-03	6.82167e+02
7743	6.85698e+02	7.74300e+03	4.16808e-03	6.85250e+02
7780	6.88793e+02	7.78000e+03	4.45695e-03	6.88333e+02
7817	6.91887e+02	7.81700e+03	4.43450e-03	6.91417e+02
7854	6.94958e+02	7.85400e+03	4.22565e-03	6.94500e+02
7891	6.98047e+02	7.89100e+03	4.28324e-03	6.97583e+02
7920	6.99533e+02	7.92000e+03	4.18514e-03	7.00000e+02