File: Experiments/TUBS/tga_nonisotherm/tga_dynamic_n2_dyn60_powder_2mg_r3.txt
index	ts	t	weight	tr
[#]	[°C]	[s]	[mg]	[°C]
643	1.30594e+02	6.43000e+02	2.00922e+00	1.33000e+02
646	1.33632e+02	6.46000e+02	2.00913e+00	1.36000e+02
649	1.36663e+02	6.49000e+02	2.00900e+00	1.39000e+02
652	1.39702e+02	6.52000e+02	2.00883e+00	1.42000e+02
655	1.42723e+02	6.55000e+02	2.00860e+00	1.45000e+02
658	1.45752e+02	6.58000e+02	2.00832e+00	1.48000e+02
661	1.48770e+02	6.61000e+02	2.00799e+00	1.51000e+02
664	1.51788e+02	6.64000e+02	2.00754e+00	1.54000e+02
667	1.54800e+02	6.67000e+02	2.00697e+00	1.57000e+02
670	1.57801e+02	6.70000e+02	2.00624e+00	1.60000e+02
673	1.60806e+02	6.73000e+02	2.00544e+00	1.63000e+02
676	1.63810e+02	6.76000e+02	2.00458e+00	1.66000e+02
679	1.66801e+02	6.79000e+02	2.00368e+00	1.69000e+02
682	1.69797e+02	6.82000e+02	2.00271e+00	1.72000e+02
685	1.72791e+02	6.85000e+02	2.00162e+00	1.75000e+02
688	1.75788e+02	6.88000e+02	2.00035e+00	1.78000e+02
691	1.78771e+02	6.91000e+02	1.99887e+00	1.81000e+02
694	1.81774e+02	6.94000e+02	1.99701e+00	1.84000e+02
697	1.84763e+02	6.97000e+02	1.99475e+00	1.87000e+02
700	1.87759e+02	7.00000e+02	1.99199e+00	1.90000e+02
703	1.90747e+02	7.03000e+02	1.98871e+00	1.93000e+02
706	1.93744e+02	7.06000e+02	1.98464e+00	1.96000e+02
709	1.96745e+02	7.09000e+02	1.97998e+00	1.99000e+02
712	1.99737e+02	7.12000e+02	1.97484e+00	2.02000e+02
715	2.02736e+02	7.15000e+02	1.96944e+00	2.05000e+02
718	2.05740e+02	7.18000e+02	1.96384e+00	2.08000e+02
721	2.08751e+02	7.21000e+02	1.95842e+00	2.11000e+02
724	2.11766e+02	7.24000e+02	1.95346e+00	2.14000e+02
727	2.14780e+02	7.27000e+02	1.94906e+00	2.17000e+02
730	2.17797e+02	7.30000e+02	1.94551e+00	2.20000e+02
733	2.20826e+02	7.33000e+02	1.94259e+00	2.23000e+02
736	2.23878e+02	7.36000e+02	1.94018e+00	2.26000e+02
739	2.26895e+02	7.39000e+02	1.93810e+00	2.29000e+02
742	2.29946e+02	7.42000e+02	1.93644e+00	2.32000e+02
745	2.32999e+02	7.45000e+02	1.93496e+00	2.35000e+02
748	2.36047e+02	7.48000e+02	1.93354e+00	2.38000e+02
751	2.39100e+02	7.51000e+02	1.93215e+00	2.41000e+02
754	2.42121e+02	7.54000e+02	1.93077e+00	2.44000e+02
757	2.45130e+02	7.57000e+02	1.92929e+00	2.47000e+02
760	2.48158e+02	7.60000e+02	1.92775e+00	2.50000e+02
763	2.51187e+02	7.63000e+02	1.92619e+00	2.53000e+02
766	2.54215e+02	7.66000e+02	1.92460e+00	2.56000e+02
769	2.57241e+02	7.69000e+02	1.92302e+00	2.59000e+02
772	2.60309e+02	7.72000e+02	1.92151e+00	2.62000e+02
775	2.63348e+02	7.75000e+02	1.92006e+00	2.65000e+02
778	2.66407e+02	7.78000e+02	1.91872e+00	2.68000e+02
781	2.69464e+02	7.81000e+02	1.91745e+00	2.71000e+02
784	2.72512e+02	7.84000e+02	1.91622e+00	2.74000e+02
787	2.75552e+02	7.87000e+02	1.91499e+00	2.77000e+02
790	2.78583e+02	7.90000e+02	1.91373e+00	2.80000e+02
793	2.81646e+02	7.93000e+02	1.91239e+00	2.83000e+02
796	2.84697e+02	7.96000e+02	1.91093e+00	2.86000e+02
799	2.87754e+02	7.99000e+02	1.90931e+00	2.89000e+02
802	2.90797e+02	8.02000e+02	1.90737e+00	2.92000e+02
805	2.93855e+02	8.05000e+02	1.90506e+00	2.95000e+02
808	2.96904e+02	8.08000e+02	1.90230e+00	2.98000e+02
811	2.99936e+02	8.11000e+02	1.89906e+00	3.01000e+02
814	3.02970e+02	8.14000e+02	1.89503e+00	3.04000e+02
817	3.06005e+02	8.17000e+02	1.89029e+00	3.07000e+02
820	3.09043e+02	8.20000e+02	1.88485e+00	3.10000e+02
823	3.12094e+02	8.23000e+02	1.87876e+00	3.13000e+02
826	3.15117e+02	8.26000e+02	1.87173e+00	3.16000e+02
829	3.18156e+02	8.29000e+02	1.86406e+00	3.19000e+02
832	3.21163e+02	8.32000e+02	1.85594e+00	3.22000e+02
835	3.24236e+02	8.35000e+02	1.84750e+00	3.25000e+02
838	3.27310e+02	8.38000e+02	1.83871e+00	3.28000e+02
841	3.30386e+02	8.41000e+02	1.82975e+00	3.31000e+02
844	3.33432e+02	8.44000e+02	1.82049e+00	3.34000e+02
847	3.36461e+02	8.47000e+02	1.81069e+00	3.37000e+02
850	3.39566e+02	8.50000e+02	1.79972e+00	3.40000e+02
853	3.42641e+02	8.53000e+02	1.78717e+00	3.43000e+02
856	3.45685e+02	8.56000e+02	1.77249e+00	3.46000e+02
859	3.48721e+02	8.59000e+02	1.75553e+00	3.49000e+02
862	3.51755e+02	8.62000e+02	1.73459e+00	3.52000e+02
865	3.54842e+02	8.65000e+02	1.70977e+00	3.55000e+02
868	3.57893e+02	8.68000e+02	1.68063e+00	3.58000e+02
871	3.60929e+02	8.71000e+02	1.64733e+00	3.61000e+02
874	3.63909e+02	8.74000e+02	1.60754e+00	3.64000e+02
877	3.66903e+02	8.77000e+02	1.56238e+00	3.67000e+02
880	3.69880e+02	8.80000e+02	1.51169e+00	3.70000e+02
883	3.72850e+02	8.83000e+02	1.45633e+00	3.73000e+02
886	3.75855e+02	8.86000e+02	1.39429e+00	3.76000e+02
889	3.78837e+02	8.89000e+02	1.32744e+00	3.79000e+02
892	3.81798e+02	8.92000e+02	1.25601e+00	3.82000e+02
895	3.84809e+02	8.95000e+02	1.18065e+00	3.85000e+02
898	3.87796e+02	8.98000e+02	1.09998e+00	3.88000e+02
901	3.90854e+02	9.01000e+02	1.01595e+00	3.91000e+02
904	3.93974e+02	9.04000e+02	9.29322e-01	3.94000e+02
907	3.96996e+02	9.07000e+02	8.41387e-01	3.97000e+02
910	4.00037e+02	9.10000e+02	7.52829e-01	4.00000e+02
913	4.03050e+02	9.13000e+02	6.65363e-01	4.03000e+02
916	4.06148e+02	9.16000e+02	5.79936e-01	4.06000e+02
919	4.09302e+02	9.19000e+02	4.97388e-01	4.09000e+02
922	4.12374e+02	9.22000e+02	4.20399e-01	4.12000e+02
925	4.15566e+02	9.25000e+02	3.48443e-01	4.15000e+02
928	4.18795e+02	9.28000e+02	2.83929e-01	4.18000e+02
931	4.21854e+02	9.31000e+02	2.26755e-01	4.21000e+02
934	4.25348e+02	9.34000e+02	1.79358e-01	4.24000e+02
937	4.27910e+02	9.37000e+02	1.39829e-01	4.27000e+02
940	4.30833e+02	9.40000e+02	1.06841e-01	4.30000e+02
943	4.33944e+02	9.43000e+02	7.89537e-02	4.33000e+02
946	4.36989e+02	9.46000e+02	5.81549e-02	4.36000e+02
949	4.39669e+02	9.49000e+02	4.19366e-02	4.39000e+02
952	4.42702e+02	9.52000e+02	2.95812e-02	4.42000e+02
955	4.45634e+02	9.55000e+02	2.00202e-02	4.45000e+02
958	4.48593e+02	9.58000e+02	1.37964e-02	4.48000e+02
961	4.51699e+02	9.61000e+02	9.24747e-03	4.51000e+02
964	4.54735e+02	9.64000e+02	5.99219e-03	4.54000e+02
967	4.57736e+02	9.67000e+02	3.60786e-03	4.57000e+02
970	4.60703e+02	9.70000e+02	2.19275e-03	4.60000e+02
973	4.63778e+02	9.73000e+02	1.21603e-03	4.63000e+02
976	4.66676e+02	9.76000e+02	5.64071e-04	4.66000e+02
979	4.69539e+02	9.79000e+02	1.10715e-04	4.69000e+02
982	4.72528e+02	9.82000e+02	-1.34564e-04	4.72000e+02
985	4.75373e+02	9.85000e+02	-2.88210e-04	4.75000e+02
988	4.78287e+02	9.88000e+02	-3.90800e-04	4.78000e+02
991	4.81263e+02	9.91000e+02	-4.73657e-04	4.81000e+02
994	4.84155e+02	9.94000e+02	-5.48477e-04	4.84000e+02
997	4.87097e+02	9.97000e+02	-6.21539e-04	4.87000e+02
1000	4.89990e+02	1.00000e+03	-6.67286e-04	4.90000e+02
1003	4.93000e+02	1.00300e+03	-6.90552e-04	4.93000e+02
1006	4.96015e+02	1.00600e+03	-7.09238e-04	4.96000e+02
1009	4.99048e+02	1.00900e+03	-7.59239e-04	4.99000e+02
1012	5.02123e+02	1.01200e+03	-8.19377e-04	5.02000e+02
1015	5.05229e+02	1.01500e+03	-8.73712e-04	5.05000e+02
1018	5.08055e+02	1.01800e+03	-8.98549e-04	5.08000e+02
1021	5.10910e+02	1.02100e+03	-8.87303e-04	5.11000e+02
1024	5.13798e+02	1.02400e+03	-8.72284e-04	5.14000e+02
1027	5.16694e+02	1.02700e+03	-8.92906e-04	5.17000e+02
1030	5.19627e+02	1.03000e+03	-9.53782e-04	5.20000e+02
1033	5.22548e+02	1.03300e+03	-9.82816e-04	5.23000e+02
1036	5.25418e+02	1.03600e+03	-9.89723e-04	5.26000e+02
1039	5.28324e+02	1.03900e+03	-1.02070e-03	5.29000e+02
1042	5.31311e+02	1.04200e+03	-1.09476e-03	5.32000e+02
1045	5.34189e+02	1.04500e+03	-1.17115e-03	5.35000e+02
1048	5.36904e+02	1.04800e+03	-1.20850e-03	5.38000e+02
1051	5.39662e+02	1.05100e+03	-1.23636e-03	5.41000e+02
1054	5.42526e+02	1.05400e+03	-1.28231e-03	5.44000e+02
1057	5.45419e+02	1.05700e+03	-1.35163e-03	5.47000e+02
1060	5.48305e+02	1.06000e+03	-1.39590e-03	5.50000e+02
1063	5.51232e+02	1.06300e+03	-1.39595e-03	5.53000e+02
1066	5.54029e+02	1.06600e+03	-1.32824e-03	5.56000e+02
1069	5.56834e+02	1.06900e+03	-1.24497e-03	5.59000e+02
1072	5.59707e+02	1.07200e+03	-1.20997e-03	5.62000e+02
1075	5.62640e+02	1.07500e+03	-1.22236e-03	5.65000e+02
1078	5.65570e+02	1.07800e+03	-1.26494e-03	5.68000e+02
1081	5.68477e+02	1.08100e+03	-1.28671e-03	5.71000e+02
1084	5.71395e+02	1.08400e+03	-1.30918e-03	5.74000e+02
1087	5.74455e+02	1.08700e+03	-1.32680e-03	5.77000e+02
1090	5.77673e+02	1.09000e+03	-1.34786e-03	5.80000e+02
1093	5.80140e+02	1.09300e+03	-1.35604e-03	5.83000e+02
1096	5.82954e+02	1.09600e+03	-1.33692e-03	5.86000e+02
1099	5.85818e+02	1.09900e+03	-1.31817e-03	5.89000e+02
1102	5.88706e+02	1.10200e+03	-1.33244e-03	5.92000e+02
1105	5.91654e+02	1.10500e+03	-1.36924e-03	5.95000e+02
1108	5.94639e+02	1.10800e+03	-1.38939e-03	5.98000e+02
1111	5.97704e+02	1.11100e+03	-1.40556e-03	6.01000e+02
1114	6.01480e+02	1.11400e+03	-1.43394e-03	6.04000e+02
1117	6.05856e+02	1.11700e+03	-1.46613e-03	6.07000e+02
1120	6.08005e+02	1.12000e+03	-1.47619e-03	6.10000e+02
1123	6.10767e+02	1.12300e+03	-1.47746e-03	6.13000e+02
1126	6.13663e+02	1.12600e+03	-1.46372e-03	6.16000e+02
1129	6.16587e+02	1.12900e+03	-1.45549e-03	6.19000e+02
1132	6.19500e+02	1.13200e+03	-1.46516e-03	6.22000e+02
1135	6.22361e+02	1.13500e+03	-1.48361e-03	6.25000e+02
1138	6.25243e+02	1.13800e+03	-1.50764e-03	6.28000e+02
1141	6.28193e+02	1.14100e+03	-1.52451e-03	6.31000e+02
1144	6.31129e+02	1.14400e+03	-1.52619e-03	6.34000e+02
1147	6.34053e+02	1.14700e+03	-1.52960e-03	6.37000e+02
1150	6.36999e+02	1.15000e+03	-1.53764e-03	6.40000e+02
1153	6.39924e+02	1.15300e+03	-1.54780e-03	6.43000e+02
1156	6.42910e+02	1.15600e+03	-1.53929e-03	6.46000e+02
1159	6.45957e+02	1.15900e+03	-1.50583e-03	6.49000e+02
1162	6.49021e+02	1.16200e+03	-1.47649e-03	6.52000e+02
1165	6.51954e+02	1.16500e+03	-1.49695e-03	6.55000e+02
1168	6.54899e+02	1.16800e+03	-1.53119e-03	6.58000e+02
1171	6.57752e+02	1.17100e+03	-1.55928e-03	6.61000e+02
1174	6.60643e+02	1.17400e+03	-1.55901e-03	6.64000e+02
1177	6.63549e+02	1.17700e+03	-1.54677e-03	6.67000e+02
1180	6.66422e+02	1.18000e+03	-1.56268e-03	6.70000e+02
1183	6.69347e+02	1.18300e+03	-1.59625e-03	6.73000e+02
1186	6.71084e+02	1.18600e+03	-1.58386e-03	6.76000e+02
1189	6.73139e+02	1.18900e+03	-1.44011e-03	6.79000e+02
1192	6.75303e+02	1.19200e+03	-1.29102e-03	6.82000e+02
1195	6.77309e+02	1.19500e+03	-1.24447e-03	6.85000e+02
1198	6.79104e+02	1.19800e+03	-1.34208e-03	6.88000e+02
1201	6.80507e+02	1.20100e+03	-1.43638e-03	6.91000e+02
1204	6.81792e+02	1.20400e+03	-1.48521e-03	6.94000e+02
1207	6.83016e+02	1.20700e+03	-1.50666e-03	6.97000e+02
1210	6.84172e+02	1.21000e+03	-1.49129e-03	7.00000e+02