File: Experiments/TUBS/tga_nonisotherm/tga_dynamic_n2_dyn60_powder_3mg_r1.txt
index	ts	t	weight	tr
[#]	[°C]	[s]	[mg]	[°C]
643	1.30209e+02	6.43000e+02	2.96809e+00	1.33000e+02
646	1.33195e+02	6.46000e+02	2.96794e+00	1.36000e+02
649	1.36200e+02	6.49000e+02	2.96778e+00	1.39000e+02
652	1.39200e+02	6.52000e+02	2.96759e+00	1.42000e+02
655	1.42211e+02	6.55000e+02	2.96734e+00	1.45000e+02
658	1.45204e+02	6.58000e+02	2.96694e+00	1.48000e+02
661	1.48207e+02	6.61000e+02	2.96638e+00	1.51000e+02
664	1.51197e+02	6.64000e+02	2.96566e+00	1.54000e+02
667	1.54200e+02	6.67000e+02	2.96482e+00	1.57000e+02
670	1.57205e+02	6.70000e+02	2.96381e+00	1.60000e+02
673	1.60208e+02	6.73000e+02	2.96269e+00	1.63000e+02
676	1.63190e+02	6.76000e+02	2.96145e+00	1.66000e+02
679	1.66190e+02	6.79000e+02	2.96009e+00	1.69000e+02
682	1.69183e+02	6.82000e+02	2.95856e+00	1.72000e+02
685	1.72167e+02	6.85000e+02	2.95685e+00	1.75000e+02
688	1.75165e+02	6.88000e+02	2.95488e+00	1.78000e+02
691	1.78170e+02	6.91000e+02	2.95259e+00	1.81000e+02
694	1.81159e+02	6.94000e+02	2.94973e+00	1.84000e+02
697	1.84163e+02	6.97000e+02	2.94624e+00	1.87000e+02
700	1.87157e+02	7.00000e+02	2.94198e+00	1.90000e+02
703	1.90170e+02	7.03000e+02	2.93698e+00	1.93000e+02
706	1.93171e+02	7.06000e+02	2.93087e+00	1.96000e+02
709	1.96170e+02	7.09000e+02	2.92393e+00	1.99000e+02
712	1.99177e+02	7.12000e+02	2.91632e+00	2.02000e+02
715	2.02196e+02	7.15000e+02	2.90832e+00	2.05000e+02
718	2.05205e+02	7.18000e+02	2.90006e+00	2.08000e+02
721	2.08237e+02	7.21000e+02	2.89209e+00	2.11000e+02
724	2.11255e+02	7.24000e+02	2.88469e+00	2.14000e+02
727	2.14287e+02	7.27000e+02	2.87802e+00	2.17000e+02
730	2.17305e+02	7.30000e+02	2.87255e+00	2.20000e+02
733	2.20344e+02	7.33000e+02	2.86809e+00	2.23000e+02
736	2.23366e+02	7.36000e+02	2.86443e+00	2.26000e+02
739	2.26390e+02	7.39000e+02	2.86134e+00	2.29000e+02
742	2.29417e+02	7.42000e+02	2.85886e+00	2.32000e+02
745	2.32449e+02	7.45000e+02	2.85661e+00	2.35000e+02
748	2.35479e+02	7.48000e+02	2.85447e+00	2.38000e+02
751	2.38510e+02	7.51000e+02	2.85237e+00	2.41000e+02
754	2.41544e+02	7.54000e+02	2.85027e+00	2.44000e+02
757	2.44582e+02	7.57000e+02	2.84811e+00	2.47000e+02
760	2.47606e+02	7.60000e+02	2.84588e+00	2.50000e+02
763	2.50634e+02	7.63000e+02	2.84363e+00	2.53000e+02
766	2.53672e+02	7.66000e+02	2.84139e+00	2.56000e+02
769	2.56705e+02	7.69000e+02	2.83921e+00	2.59000e+02
772	2.59740e+02	7.72000e+02	2.83708e+00	2.62000e+02
775	2.62784e+02	7.75000e+02	2.83499e+00	2.65000e+02
778	2.65853e+02	7.78000e+02	2.83297e+00	2.68000e+02
781	2.68924e+02	7.81000e+02	2.83102e+00	2.71000e+02
784	2.71983e+02	7.84000e+02	2.82914e+00	2.74000e+02
787	2.75061e+02	7.87000e+02	2.82726e+00	2.77000e+02
790	2.78142e+02	7.90000e+02	2.82535e+00	2.80000e+02
793	2.81190e+02	7.93000e+02	2.82329e+00	2.83000e+02
796	2.84222e+02	7.96000e+02	2.82100e+00	2.86000e+02
799	2.87276e+02	7.99000e+02	2.81844e+00	2.89000e+02
802	2.90335e+02	8.02000e+02	2.81537e+00	2.92000e+02
805	2.93358e+02	8.05000e+02	2.81175e+00	2.95000e+02
808	2.96421e+02	8.08000e+02	2.80746e+00	2.98000e+02
811	2.99491e+02	8.11000e+02	2.80248e+00	3.01000e+02
814	3.02566e+02	8.14000e+02	2.79637e+00	3.04000e+02
817	3.05611e+02	8.17000e+02	2.78929e+00	3.07000e+02
820	3.08654e+02	8.20000e+02	2.78118e+00	3.10000e+02
823	3.11707e+02	8.23000e+02	2.77217e+00	3.13000e+02
826	3.14734e+02	8.26000e+02	2.76189e+00	3.16000e+02
829	3.17757e+02	8.29000e+02	2.75081e+00	3.19000e+02
832	3.20773e+02	8.32000e+02	2.73905e+00	3.22000e+02
835	3.23799e+02	8.35000e+02	2.72678e+00	3.25000e+02
838	3.26849e+02	8.38000e+02	2.71393e+00	3.28000e+02
841	3.29891e+02	8.41000e+02	2.70074e+00	3.31000e+02
844	3.32956e+02	8.44000e+02	2.68694e+00	3.34000e+02
847	3.36004e+02	8.47000e+02	2.67228e+00	3.37000e+02
850	3.39054e+02	8.50000e+02	2.65574e+00	3.40000e+02
853	3.42078e+02	8.53000e+02	2.63679e+00	3.43000e+02
856	3.45086e+02	8.56000e+02	2.61472e+00	3.46000e+02
859	3.48099e+02	8.59000e+02	2.58931e+00	3.49000e+02
862	3.51121e+02	8.62000e+02	2.55824e+00	3.52000e+02
865	3.54115e+02	8.65000e+02	2.52186e+00	3.55000e+02
868	3.57133e+02	8.68000e+02	2.47974e+00	3.58000e+02
871	3.60159e+02	8.71000e+02	2.43131e+00	3.61000e+02
874	3.63159e+02	8.74000e+02	2.37569e+00	3.64000e+02
877	3.66182e+02	8.77000e+02	2.31163e+00	3.67000e+02
880	3.69148e+02	8.80000e+02	2.23868e+00	3.70000e+02
883	3.72181e+02	8.83000e+02	2.16114e+00	3.73000e+02
886	3.75077e+02	8.86000e+02	2.07347e+00	3.76000e+02
889	3.77959e+02	8.89000e+02	1.97851e+00	3.79000e+02
892	3.80883e+02	8.92000e+02	1.87796e+00	3.82000e+02
895	3.83937e+02	8.95000e+02	1.77213e+00	3.85000e+02
898	3.86958e+02	8.98000e+02	1.65903e+00	3.88000e+02
901	3.89973e+02	9.01000e+02	1.54120e+00	3.91000e+02
904	3.93113e+02	9.04000e+02	1.41993e+00	3.94000e+02
907	3.96150e+02	9.07000e+02	1.29682e+00	3.97000e+02
910	3.99015e+02	9.10000e+02	1.17219e+00	4.00000e+02
913	4.01921e+02	9.13000e+02	1.04778e+00	4.03000e+02
916	4.04854e+02	9.16000e+02	9.24785e-01	4.06000e+02
919	4.07817e+02	9.19000e+02	8.04063e-01	4.09000e+02
922	4.10825e+02	9.22000e+02	6.88426e-01	4.12000e+02
925	4.13898e+02	9.25000e+02	5.78208e-01	4.15000e+02
928	4.17026e+02	9.28000e+02	4.77132e-01	4.18000e+02
931	4.20079e+02	9.31000e+02	3.85986e-01	4.21000e+02
934	4.23159e+02	9.34000e+02	3.07585e-01	4.24000e+02
937	4.26182e+02	9.37000e+02	2.43190e-01	4.27000e+02
940	4.29236e+02	9.40000e+02	1.88766e-01	4.30000e+02
943	4.32208e+02	9.43000e+02	1.43451e-01	4.33000e+02
946	4.35157e+02	9.46000e+02	1.09455e-01	4.36000e+02
949	4.38153e+02	9.49000e+02	8.34309e-02	4.39000e+02
952	4.41164e+02	9.52000e+02	6.34882e-02	4.42000e+02
955	4.44162e+02	9.55000e+02	4.78407e-02	4.45000e+02
958	4.47170e+02	9.58000e+02	3.76301e-02	4.48000e+02
961	4.50213e+02	9.61000e+02	3.02710e-02	4.51000e+02
964	4.53181e+02	9.64000e+02	2.49943e-02	4.54000e+02
967	4.56157e+02	9.67000e+02	2.11240e-02	4.57000e+02
970	4.59113e+02	9.70000e+02	1.88505e-02	4.60000e+02
973	4.62097e+02	9.73000e+02	1.72919e-02	4.63000e+02
976	4.65071e+02	9.76000e+02	1.61835e-02	4.66000e+02
979	4.68060e+02	9.79000e+02	1.53563e-02	4.69000e+02
982	4.71115e+02	9.82000e+02	1.48677e-02	4.72000e+02
985	4.74264e+02	9.85000e+02	1.45676e-02	4.75000e+02
988	4.77530e+02	9.88000e+02	1.43597e-02	4.78000e+02
991	4.80310e+02	9.91000e+02	1.41736e-02	4.81000e+02
994	4.83320e+02	9.94000e+02	1.39891e-02	4.84000e+02
997	4.86582e+02	9.97000e+02	1.38414e-02	4.87000e+02
1000	4.89639e+02	1.00000e+03	1.37601e-02	4.90000e+02
1003	4.93180e+02	1.00300e+03	1.37109e-02	4.93000e+02
1006	4.96105e+02	1.00600e+03	1.36712e-02	4.96000e+02
1009	4.98934e+02	1.00900e+03	1.35864e-02	4.99000e+02
1012	5.01754e+02	1.01200e+03	1.34751e-02	5.02000e+02
1015	5.04659e+02	1.01500e+03	1.33830e-02	5.05000e+02
1018	5.07597e+02	1.01800e+03	1.33412e-02	5.08000e+02
1021	5.10537e+02	1.02100e+03	1.33419e-02	5.11000e+02
1024	5.13707e+02	1.02400e+03	1.33539e-02	5.14000e+02
1027	5.16656e+02	1.02700e+03	1.33558e-02	5.17000e+02
1030	5.19506e+02	1.03000e+03	1.33251e-02	5.20000e+02
1033	5.22180e+02	1.03300e+03	1.32721e-02	5.23000e+02
1036	5.24953e+02	1.03600e+03	1.32341e-02	5.26000e+02
1039	5.27714e+02	1.03900e+03	1.32011e-02	5.29000e+02
1042	5.30549e+02	1.04200e+03	1.31640e-02	5.32000e+02
1045	5.33438e+02	1.04500e+03	1.31199e-02	5.35000e+02
1048	5.36283e+02	1.04800e+03	1.30741e-02	5.38000e+02
1051	5.39107e+02	1.05100e+03	1.30235e-02	5.41000e+02
1054	5.41947e+02	1.05400e+03	1.29710e-02	5.44000e+02
1057	5.44823e+02	1.05700e+03	1.29200e-02	5.47000e+02
1060	5.47657e+02	1.06000e+03	1.28766e-02	5.50000e+02
1063	5.50484e+02	1.06300e+03	1.28749e-02	5.53000e+02
1066	5.53275e+02	1.06600e+03	1.29285e-02	5.56000e+02
1069	5.56182e+02	1.06900e+03	1.29894e-02	5.59000e+02
1072	5.59130e+02	1.07200e+03	1.30280e-02	5.62000e+02
1075	5.62093e+02	1.07500e+03	1.30272e-02	5.65000e+02
1078	5.65031e+02	1.07800e+03	1.29778e-02	5.68000e+02
1081	5.67999e+02	1.08100e+03	1.29305e-02	5.71000e+02
1084	5.70944e+02	1.08400e+03	1.29089e-02	5.74000e+02
1087	5.73932e+02	1.08700e+03	1.28931e-02	5.77000e+02
1090	5.76993e+02	1.09000e+03	1.28714e-02	5.80000e+02
1093	5.80080e+02	1.09300e+03	1.28343e-02	5.83000e+02
1096	5.83270e+02	1.09600e+03	1.27936e-02	5.86000e+02
1099	5.86329e+02	1.09900e+03	1.27523e-02	5.89000e+02
1102	5.89523e+02	1.10200e+03	1.27288e-02	5.92000e+02
1105	5.92620e+02	1.10500e+03	1.27196e-02	5.95000e+02
1108	5.95674e+02	1.10800e+03	1.26846e-02	5.98000e+02
1111	5.98792e+02	1.11100e+03	1.26407e-02	6.01000e+02
1114	6.01765e+02	1.11400e+03	1.26104e-02	6.04000e+02
1117	6.04564e+02	1.11700e+03	1.26034e-02	6.07000e+02
1120	6.07441e+02	1.12000e+03	1.25872e-02	6.10000e+02
1123	6.10401e+02	1.12300e+03	1.25676e-02	6.13000e+02
1126	6.13504e+02	1.12600e+03	1.25551e-02	6.16000e+02
1129	6.16598e+02	1.12900e+03	1.25538e-02	6.19000e+02
1132	6.19712e+02	1.13200e+03	1.25530e-02	6.22000e+02
1135	6.22684e+02	1.13500e+03	1.25515e-02	6.25000e+02
1138	6.25705e+02	1.13800e+03	1.25471e-02	6.28000e+02
1141	6.28688e+02	1.14100e+03	1.25369e-02	6.31000e+02
1144	6.31702e+02	1.14400e+03	1.25322e-02	6.34000e+02
1147	6.34641e+02	1.14700e+03	1.25278e-02	6.37000e+02
1150	6.37650e+02	1.15000e+03	1.24967e-02	6.40000e+02
1153	6.43006e+02	1.15300e+03	1.24382e-02	6.43000e+02
1156	6.45908e+02	1.15600e+03	1.24117e-02	6.46000e+02
1159	6.48668e+02	1.15900e+03	1.23971e-02	6.49000e+02
1162	6.51474e+02	1.16200e+03	1.23838e-02	6.52000e+02
1165	6.54309e+02	1.16500e+03	1.23610e-02	6.55000e+02
1168	6.57193e+02	1.16800e+03	1.23536e-02	6.58000e+02
1171	6.60095e+02	1.17100e+03	1.23688e-02	6.61000e+02
1174	6.63007e+02	1.17400e+03	1.23909e-02	6.64000e+02
1177	6.65907e+02	1.17700e+03	1.23806e-02	6.67000e+02
1180	6.68829e+02	1.18000e+03	1.23670e-02	6.70000e+02
1183	6.71762e+02	1.18300e+03	1.23638e-02	6.73000e+02
1186	6.73485e+02	1.18600e+03	1.24287e-02	6.76000e+02
1189	6.75495e+02	1.18900e+03	1.25937e-02	6.79000e+02
1192	6.77488e+02	1.19200e+03	1.27262e-02	6.82000e+02
1195	6.79304e+02	1.19500e+03	1.27495e-02	6.85000e+02
1198	6.80916e+02	1.19800e+03	1.26378e-02	6.88000e+02
1201	6.82379e+02	1.20100e+03	1.25122e-02	6.91000e+02
1204	6.83758e+02	1.20400e+03	1.24027e-02	6.94000e+02
1207	6.84995e+02	1.20700e+03	1.23577e-02	6.97000e+02
1210	6.86146e+02	1.21000e+03	1.24079e-02	7.00000e+02