File: Experiments/TUBS/tga_nonisotherm/tga_dynamic_n2_dyn20_piece_1mg_r1.txt
index	ts	t	weight	tr
[#]	[°C]	[s]	[mg]	[°C]
723	1.30061e+02	7.23000e+02	9.82431e-01	1.31000e+02
733	1.33387e+02	7.33000e+02	9.82506e-01	1.34333e+02
743	1.36700e+02	7.43000e+02	9.82341e-01	1.37667e+02
753	1.40042e+02	7.53000e+02	9.82391e-01	1.41000e+02
763	1.43367e+02	7.63000e+02	9.82325e-01	1.44333e+02
773	1.46708e+02	7.73000e+02	9.82423e-01	1.47667e+02
783	1.50043e+02	7.83000e+02	9.82254e-01	1.51000e+02
793	1.53375e+02	7.93000e+02	9.82244e-01	1.54333e+02
803	1.56736e+02	8.03000e+02	9.81967e-01	1.57667e+02
813	1.60084e+02	8.13000e+02	9.82074e-01	1.61000e+02
823	1.63447e+02	8.23000e+02	9.82267e-01	1.64333e+02
833	1.66814e+02	8.33000e+02	9.82241e-01	1.67667e+02
843	1.70180e+02	8.43000e+02	9.82196e-01	1.71000e+02
853	1.73545e+02	8.53000e+02	9.82042e-01	1.74333e+02
863	1.76932e+02	8.63000e+02	9.81918e-01	1.77667e+02
873	1.80337e+02	8.73000e+02	9.81578e-01	1.81000e+02
883	1.83715e+02	8.83000e+02	9.81342e-01	1.84333e+02
893	1.87101e+02	8.93000e+02	9.80767e-01	1.87667e+02
903	1.90484e+02	9.03000e+02	9.79961e-01	1.91000e+02
913	1.93853e+02	9.13000e+02	9.78977e-01	1.94333e+02
923	1.97231e+02	9.23000e+02	9.78002e-01	1.97667e+02
933	2.00607e+02	9.33000e+02	9.76685e-01	2.01000e+02
943	2.03994e+02	9.43000e+02	9.75332e-01	2.04333e+02
953	2.07354e+02	9.53000e+02	9.73959e-01	2.07667e+02
963	2.10747e+02	9.63000e+02	9.72669e-01	2.11000e+02
973	2.14123e+02	9.73000e+02	9.71560e-01	2.14333e+02
983	2.17500e+02	9.83000e+02	9.70160e-01	2.17667e+02
993	2.20872e+02	9.93000e+02	9.68828e-01	2.21000e+02
1003	2.24255e+02	1.00300e+03	9.67599e-01	2.24333e+02
1013	2.27619e+02	1.01300e+03	9.66001e-01	2.27667e+02
1023	2.31001e+02	1.02300e+03	9.64729e-01	2.31000e+02
1033	2.34376e+02	1.03300e+03	9.63353e-01	2.34333e+02
1043	2.37749e+02	1.04300e+03	9.62015e-01	2.37667e+02
1053	2.41122e+02	1.05300e+03	9.60644e-01	2.41000e+02
1063	2.44486e+02	1.06300e+03	9.59278e-01	2.44333e+02
1073	2.47851e+02	1.07300e+03	9.57881e-01	2.47667e+02
1083	2.51216e+02	1.08300e+03	9.56656e-01	2.51000e+02
1093	2.54591e+02	1.09300e+03	9.55244e-01	2.54333e+02
1103	2.57947e+02	1.10300e+03	9.54024e-01	2.57667e+02
1113	2.61303e+02	1.11300e+03	9.52685e-01	2.61000e+02
1123	2.64669e+02	1.12300e+03	9.51257e-01	2.64333e+02
1133	2.68019e+02	1.13300e+03	9.50286e-01	2.67667e+02
1143	2.71381e+02	1.14300e+03	9.48980e-01	2.71000e+02
1153	2.74731e+02	1.15300e+03	9.47690e-01	2.74333e+02
1163	2.78085e+02	1.16300e+03	9.46396e-01	2.77667e+02
1173	2.81436e+02	1.17300e+03	9.44799e-01	2.81000e+02
1183	2.84785e+02	1.18300e+03	9.43138e-01	2.84333e+02
1193	2.88140e+02	1.19300e+03	9.41355e-01	2.87667e+02
1203	2.91493e+02	1.20300e+03	9.39397e-01	2.91000e+02
1213	2.94834e+02	1.21300e+03	9.37114e-01	2.94333e+02
1223	2.98180e+02	1.22300e+03	9.34484e-01	2.97667e+02
1233	3.01515e+02	1.23300e+03	9.31586e-01	3.01000e+02
1243	3.04858e+02	1.24300e+03	9.28364e-01	3.04333e+02
1253	3.08203e+02	1.25300e+03	9.24475e-01	3.07667e+02
1263	3.11552e+02	1.26300e+03	9.20767e-01	3.11000e+02
1273	3.14885e+02	1.27300e+03	9.16862e-01	3.14333e+02
1283	3.18229e+02	1.28300e+03	9.12881e-01	3.17667e+02
1293	3.21564e+02	1.29300e+03	9.08655e-01	3.21000e+02
1303	3.24893e+02	1.30300e+03	9.04174e-01	3.24333e+02
1313	3.28225e+02	1.31300e+03	8.99124e-01	3.27667e+02
1323	3.31558e+02	1.32300e+03	8.93185e-01	3.31000e+02
1333	3.34889e+02	1.33300e+03	8.85888e-01	3.34333e+02
1343	3.38216e+02	1.34300e+03	8.77070e-01	3.37667e+02
1353	3.41541e+02	1.35300e+03	8.66212e-01	3.41000e+02
1363	3.44862e+02	1.36300e+03	8.52675e-01	3.44333e+02
1373	3.48184e+02	1.37300e+03	8.35552e-01	3.47667e+02
1383	3.51504e+02	1.38300e+03	8.15108e-01	3.51000e+02
1393	3.54792e+02	1.39300e+03	7.89835e-01	3.54333e+02
1403	3.58124e+02	1.40300e+03	7.59263e-01	3.57667e+02
1413	3.61437e+02	1.41300e+03	7.22563e-01	3.61000e+02
1423	3.64732e+02	1.42300e+03	6.79145e-01	3.64333e+02
1433	3.68039e+02	1.43300e+03	6.28347e-01	3.67667e+02
1443	3.71341e+02	1.44300e+03	5.73245e-01	3.71000e+02
1453	3.74647e+02	1.45300e+03	5.13939e-01	3.74333e+02
1463	3.77987e+02	1.46300e+03	4.53887e-01	3.77667e+02
1473	3.81281e+02	1.47300e+03	3.94501e-01	3.81000e+02
1483	3.84602e+02	1.48300e+03	3.36249e-01	3.84333e+02
1493	3.87936e+02	1.49300e+03	2.79000e-01	3.87667e+02
1503	3.91271e+02	1.50300e+03	2.25372e-01	3.91000e+02
1513	3.94608e+02	1.51300e+03	1.77840e-01	3.94333e+02
1523	3.97955e+02	1.52300e+03	1.38156e-01	3.97667e+02
1533	4.01295e+02	1.53300e+03	1.06662e-01	4.01000e+02
1543	4.04639e+02	1.54300e+03	8.27666e-02	4.04333e+02
1553	4.07968e+02	1.55300e+03	6.59265e-02	4.07667e+02
1563	4.11291e+02	1.56300e+03	5.25928e-02	4.11000e+02
1573	4.14622e+02	1.57300e+03	4.41880e-02	4.14333e+02
1583	4.17951e+02	1.58300e+03	3.83237e-02	4.17667e+02
1593	4.21252e+02	1.59300e+03	3.43484e-02	4.21000e+02
1603	4.24581e+02	1.60300e+03	3.10214e-02	4.24333e+02
1613	4.27892e+02	1.61300e+03	2.89298e-02	4.27667e+02
1623	4.31244e+02	1.62300e+03	2.75151e-02	4.31000e+02
1633	4.34517e+02	1.63300e+03	2.55417e-02	4.34333e+02
1643	4.37810e+02	1.64300e+03	2.51354e-02	4.37667e+02
1653	4.41111e+02	1.65300e+03	2.45335e-02	4.41000e+02
1663	4.44414e+02	1.66300e+03	2.44016e-02	4.44333e+02
1673	4.47727e+02	1.67300e+03	2.41358e-02	4.47667e+02
1683	4.51016e+02	1.68300e+03	2.39334e-02	4.51000e+02
1693	4.54322e+02	1.69300e+03	2.39115e-02	4.54333e+02
1703	4.57628e+02	1.70300e+03	2.39238e-02	4.57667e+02
1713	4.60918e+02	1.71300e+03	2.36899e-02	4.61000e+02
1723	4.64226e+02	1.72300e+03	2.35761e-02	4.64333e+02
1733	4.67529e+02	1.73300e+03	2.36309e-02	4.67667e+02
1743	4.70828e+02	1.74300e+03	2.35871e-02	4.71000e+02
1753	4.74119e+02	1.75300e+03	2.36097e-02	4.74333e+02
1763	4.77417e+02	1.76300e+03	2.33723e-02	4.77667e+02
1773	4.80716e+02	1.77300e+03	2.32997e-02	4.81000e+02
1783	4.84019e+02	1.78300e+03	2.34281e-02	4.84333e+02
1793	4.87317e+02	1.79300e+03	2.33005e-02	4.87667e+02
1803	4.90620e+02	1.80300e+03	2.34511e-02	4.91000e+02
1813	4.93912e+02	1.81300e+03	2.33116e-02	4.94333e+02
1823	4.97218e+02	1.82300e+03	2.33002e-02	4.97667e+02
1833	5.00511e+02	1.83300e+03	2.32417e-02	5.01000e+02
1843	5.03815e+02	1.84300e+03	2.32306e-02	5.04333e+02
1853	5.07121e+02	1.85300e+03	2.31238e-02	5.07667e+02
1863	5.10421e+02	1.86300e+03	2.31437e-02	5.11000e+02
1873	5.13715e+02	1.87300e+03	2.30837e-02	5.14333e+02
1883	5.17019e+02	1.88300e+03	2.30751e-02	5.17667e+02
1893	5.20345e+02	1.89300e+03	2.31827e-02	5.21000e+02
1903	5.23637e+02	1.90300e+03	2.29969e-02	5.24333e+02
1913	5.26951e+02	1.91300e+03	2.29582e-02	5.27667e+02
1923	5.30266e+02	1.92300e+03	2.30165e-02	5.31000e+02
1933	5.33576e+02	1.93300e+03	2.28876e-02	5.34333e+02
1943	5.36889e+02	1.94300e+03	2.29940e-02	5.37667e+02
1953	5.40202e+02	1.95300e+03	2.29953e-02	5.41000e+02
1963	5.43509e+02	1.96300e+03	2.29770e-02	5.44333e+02
1973	5.46821e+02	1.97300e+03	2.29765e-02	5.47667e+02
1983	5.50141e+02	1.98300e+03	2.29236e-02	5.51000e+02
1993	5.53446e+02	1.99300e+03	2.29573e-02	5.54333e+02
2003	5.56768e+02	2.00300e+03	2.28592e-02	5.57667e+02
2013	5.60084e+02	2.01300e+03	2.28800e-02	5.61000e+02
2023	5.63397e+02	2.02300e+03	2.29661e-02	5.64333e+02
2033	5.66711e+02	2.03300e+03	2.29586e-02	5.67667e+02
2043	5.70039e+02	2.04300e+03	2.28777e-02	5.71000e+02
2053	5.73340e+02	2.05300e+03	2.28655e-02	5.74333e+02
2063	5.76664e+02	2.06300e+03	2.27297e-02	5.77667e+02
2073	5.79975e+02	2.07300e+03	2.28383e-02	5.81000e+02
2083	5.83303e+02	2.08300e+03	2.27735e-02	5.84333e+02
2093	5.86617e+02	2.09300e+03	2.28248e-02	5.87667e+02
2103	5.89944e+02	2.10300e+03	2.28040e-02	5.91000e+02
2113	5.93266e+02	2.11300e+03	2.27082e-02	5.94333e+02
2123	5.96588e+02	2.12300e+03	2.26452e-02	5.97667e+02
2133	5.99913e+02	2.13300e+03	2.27159e-02	6.01000e+02
2143	6.03233e+02	2.14300e+03	2.27946e-02	6.04333e+02
2153	6.06543e+02	2.15300e+03	2.26503e-02	6.07667e+02
2163	6.09869e+02	2.16300e+03	2.27464e-02	6.11000e+02
2173	6.13197e+02	2.17300e+03	2.28103e-02	6.14333e+02
2183	6.16507e+02	2.18300e+03	2.27269e-02	6.17667e+02
2193	6.19839e+02	2.19300e+03	2.26425e-02	6.21000e+02
2203	6.23170e+02	2.20300e+03	2.28168e-02	6.24333e+02
2213	6.26494e+02	2.21300e+03	2.26698e-02	6.27667e+02
2223	6.29837e+02	2.22300e+03	2.26277e-02	6.31000e+02
2233	6.33163e+02	2.23300e+03	2.27280e-02	6.34333e+02
2243	6.36492e+02	2.24300e+03	2.26082e-02	6.37667e+02
2253	6.39821e+02	2.25300e+03	2.25910e-02	6.41000e+02
2263	6.43147e+02	2.26300e+03	2.25060e-02	6.44333e+02
2273	6.46478e+02	2.27300e+03	2.24574e-02	6.47667e+02
2283	6.49810e+02	2.28300e+03	2.24905e-02	6.51000e+02
2293	6.53147e+02	2.29300e+03	2.25378e-02	6.54333e+02
2303	6.56466e+02	2.30300e+03	2.26524e-02	6.57667e+02
2313	6.59805e+02	2.31300e+03	2.27800e-02	6.61000e+02
2323	6.63132e+02	2.32300e+03	2.26823e-02	6.64333e+02
2333	6.66454e+02	2.33300e+03	2.26310e-02	6.67667e+02
2343	6.69788e+02	2.34300e+03	2.26179e-02	6.71000e+02
2353	6.73112e+02	2.35300e+03	2.25281e-02	6.74333e+02
2363	6.76443e+02	2.36300e+03	2.25109e-02	6.77667e+02
2373	6.79769e+02	2.37300e+03	2.25829e-02	6.81000e+02
2383	6.83109e+02	2.38300e+03	2.25633e-02	6.84333e+02
2393	6.86437e+02	2.39300e+03	2.24750e-02	6.87667e+02
2403	6.89778e+02	2.40300e+03	2.24969e-02	6.91000e+02
2413	6.92028e+02	2.41300e+03	2.25735e-02	6.94333e+02
2423	6.93924e+02	2.42300e+03	2.25037e-02	6.97667e+02
2430	6.94945e+02	2.43000e+03	2.25588e-02	7.00000e+02