File: Experiments/TUBS/tga_nonisotherm/tga_dynamic_n2_dyn20_piece_3mg_r2.txt
index	ts	t	weight	tr
[#]	[°C]	[s]	[mg]	[°C]
723	1.29997e+02	7.23000e+02	2.96426e+00	1.31000e+02
733	1.33312e+02	7.33000e+02	2.96423e+00	1.34333e+02
743	1.36632e+02	7.43000e+02	2.96405e+00	1.37667e+02
753	1.39987e+02	7.53000e+02	2.96399e+00	1.41000e+02
763	1.43309e+02	7.63000e+02	2.96397e+00	1.44333e+02
773	1.46656e+02	7.73000e+02	2.96365e+00	1.47667e+02
783	1.50007e+02	7.83000e+02	2.96354e+00	1.51000e+02
793	1.53366e+02	7.93000e+02	2.96328e+00	1.54333e+02
803	1.56731e+02	8.03000e+02	2.96303e+00	1.57667e+02
813	1.60086e+02	8.13000e+02	2.96275e+00	1.61000e+02
823	1.63464e+02	8.23000e+02	2.96250e+00	1.64333e+02
833	1.66847e+02	8.33000e+02	2.96237e+00	1.67667e+02
843	1.70211e+02	8.43000e+02	2.96221e+00	1.71000e+02
853	1.73595e+02	8.53000e+02	2.96178e+00	1.74333e+02
863	1.76979e+02	8.63000e+02	2.96113e+00	1.77667e+02
873	1.80348e+02	8.73000e+02	2.96051e+00	1.81000e+02
883	1.83748e+02	8.83000e+02	2.95967e+00	1.84333e+02
893	1.87138e+02	8.93000e+02	2.95835e+00	1.87667e+02
903	1.90520e+02	9.03000e+02	2.95674e+00	1.91000e+02
913	1.93929e+02	9.13000e+02	2.95476e+00	1.94333e+02
923	1.97327e+02	9.23000e+02	2.95222e+00	1.97667e+02
933	2.00730e+02	9.33000e+02	2.94944e+00	2.01000e+02
943	2.04127e+02	9.43000e+02	2.94644e+00	2.04333e+02
953	2.07532e+02	9.53000e+02	2.94327e+00	2.07667e+02
963	2.10928e+02	9.63000e+02	2.94003e+00	2.11000e+02
973	2.14335e+02	9.73000e+02	2.93670e+00	2.14333e+02
983	2.17737e+02	9.83000e+02	2.93346e+00	2.17667e+02
993	2.21129e+02	9.93000e+02	2.93012e+00	2.21000e+02
1003	2.24513e+02	1.00300e+03	2.92673e+00	2.24333e+02
1013	2.27934e+02	1.01300e+03	2.92299e+00	2.27667e+02
1023	2.31327e+02	1.02300e+03	2.91941e+00	2.31000e+02
1033	2.34727e+02	1.03300e+03	2.91574e+00	2.34333e+02
1043	2.38066e+02	1.04300e+03	2.91193e+00	2.37667e+02
1053	2.41449e+02	1.05300e+03	2.90812e+00	2.41000e+02
1063	2.44894e+02	1.06300e+03	2.90429e+00	2.44333e+02
1073	2.48265e+02	1.07300e+03	2.90018e+00	2.47667e+02
1083	2.51665e+02	1.08300e+03	2.89623e+00	2.51000e+02
1093	2.55041e+02	1.09300e+03	2.89215e+00	2.54333e+02
1103	2.58423e+02	1.10300e+03	2.88812e+00	2.57667e+02
1113	2.61818e+02	1.11300e+03	2.88405e+00	2.61000e+02
1123	2.65182e+02	1.12300e+03	2.88004e+00	2.64333e+02
1133	2.68585e+02	1.13300e+03	2.87604e+00	2.67667e+02
1143	2.71970e+02	1.14300e+03	2.87196e+00	2.71000e+02
1153	2.75531e+02	1.15300e+03	2.86775e+00	2.74333e+02
1163	2.79058e+02	1.16300e+03	2.86351e+00	2.77667e+02
1173	2.82464e+02	1.17300e+03	2.85897e+00	2.81000e+02
1183	2.85785e+02	1.18300e+03	2.85422e+00	2.84333e+02
1193	2.89059e+02	1.19300e+03	2.84911e+00	2.87667e+02
1203	2.92418e+02	1.20300e+03	2.84343e+00	2.91000e+02
1213	2.95737e+02	1.21300e+03	2.83695e+00	2.94333e+02
1223	2.99054e+02	1.22300e+03	2.82982e+00	2.97667e+02
1233	3.02431e+02	1.23300e+03	2.82169e+00	3.01000e+02
1243	3.05924e+02	1.24300e+03	2.81254e+00	3.04333e+02
1253	3.09404e+02	1.25300e+03	2.80240e+00	3.07667e+02
1263	3.12887e+02	1.26300e+03	2.79174e+00	3.11000e+02
1273	3.16263e+02	1.27300e+03	2.78056e+00	3.14333e+02
1283	3.19659e+02	1.28300e+03	2.76900e+00	3.17667e+02
1293	3.23046e+02	1.29300e+03	2.75691e+00	3.21000e+02
1303	3.26390e+02	1.30300e+03	2.74427e+00	3.24333e+02
1313	3.29695e+02	1.31300e+03	2.73043e+00	3.27667e+02
1323	3.33107e+02	1.32300e+03	2.71457e+00	3.31000e+02
1333	3.36568e+02	1.33300e+03	2.69574e+00	3.34333e+02
1343	3.39915e+02	1.34300e+03	2.67322e+00	3.37667e+02
1353	3.43172e+02	1.35300e+03	2.64554e+00	3.41000e+02
1363	3.46409e+02	1.36300e+03	2.61136e+00	3.44333e+02
1373	3.49682e+02	1.37300e+03	2.56826e+00	3.47667e+02
1383	3.52897e+02	1.38300e+03	2.51464e+00	3.51000e+02
1393	3.56147e+02	1.39300e+03	2.44786e+00	3.54333e+02
1403	3.59449e+02	1.40300e+03	2.36379e+00	3.57667e+02
1413	3.62734e+02	1.41300e+03	2.26007e+00	3.61000e+02
1423	3.66019e+02	1.42300e+03	2.13833e+00	3.64333e+02
1433	3.69261e+02	1.43300e+03	1.99394e+00	3.67667e+02
1443	3.72494e+02	1.44300e+03	1.83433e+00	3.71000e+02
1453	3.75815e+02	1.45300e+03	1.66543e+00	3.74333e+02
1463	3.79128e+02	1.46300e+03	1.49269e+00	3.77667e+02
1473	3.82623e+02	1.47300e+03	1.31881e+00	3.81000e+02
1483	3.85874e+02	1.48300e+03	1.14585e+00	3.84333e+02
1493	3.89242e+02	1.49300e+03	9.69879e-01	3.87667e+02
1503	3.92528e+02	1.50300e+03	7.93551e-01	3.91000e+02
1513	3.95818e+02	1.51300e+03	6.29391e-01	3.94333e+02
1523	3.99106e+02	1.52300e+03	4.85313e-01	3.97667e+02
1533	4.02468e+02	1.53300e+03	3.64479e-01	4.01000e+02
1543	4.05936e+02	1.54300e+03	2.67296e-01	4.04333e+02
1553	4.09303e+02	1.55300e+03	1.94539e-01	4.07667e+02
1563	4.12692e+02	1.56300e+03	1.41367e-01	4.11000e+02
1573	4.16119e+02	1.57300e+03	1.04882e-01	4.14333e+02
1583	4.19499e+02	1.58300e+03	7.98946e-02	4.17667e+02
1593	4.22884e+02	1.59300e+03	6.29134e-02	4.21000e+02
1603	4.26096e+02	1.60300e+03	5.11605e-02	4.24333e+02
1613	4.29337e+02	1.61300e+03	4.28897e-02	4.27667e+02
1623	4.32660e+02	1.62300e+03	3.70078e-02	4.31000e+02
1633	4.35970e+02	1.63300e+03	3.26724e-02	4.34333e+02
1643	4.39265e+02	1.64300e+03	2.92177e-02	4.37667e+02
1653	4.42513e+02	1.65300e+03	2.65864e-02	4.41000e+02
1663	4.45842e+02	1.66300e+03	2.48616e-02	4.44333e+02
1673	4.49146e+02	1.67300e+03	2.37014e-02	4.47667e+02
1683	4.52575e+02	1.68300e+03	2.32166e-02	4.51000e+02
1693	4.56340e+02	1.69300e+03	2.29647e-02	4.54333e+02
1703	4.59782e+02	1.70300e+03	2.27720e-02	4.57667e+02
1713	4.63037e+02	1.71300e+03	2.26832e-02	4.61000e+02
1723	4.66327e+02	1.72300e+03	2.24003e-02	4.64333e+02
1733	4.69627e+02	1.73300e+03	2.22987e-02	4.67667e+02
1743	4.72873e+02	1.74300e+03	2.21796e-02	4.71000e+02
1753	4.76190e+02	1.75300e+03	2.21765e-02	4.74333e+02
1763	4.79382e+02	1.76300e+03	2.19937e-02	4.77667e+02
1773	4.82649e+02	1.77300e+03	2.18838e-02	4.81000e+02
1783	4.85965e+02	1.78300e+03	2.18307e-02	4.84333e+02
1793	4.89324e+02	1.79300e+03	2.17592e-02	4.87667e+02
1803	4.92754e+02	1.80300e+03	2.17078e-02	4.91000e+02
1813	4.95970e+02	1.81300e+03	2.16762e-02	4.94333e+02
1823	4.99158e+02	1.82300e+03	2.16051e-02	4.97667e+02
1833	5.02164e+02	1.83300e+03	2.14695e-02	5.01000e+02
1843	5.05262e+02	1.84300e+03	2.14236e-02	5.04333e+02
1853	5.08436e+02	1.85300e+03	2.14831e-02	5.07667e+02
1863	5.11689e+02	1.86300e+03	2.14022e-02	5.11000e+02
1873	5.14982e+02	1.87300e+03	2.14504e-02	5.14333e+02
1883	5.18056e+02	1.88300e+03	2.13702e-02	5.17667e+02
1893	5.21186e+02	1.89300e+03	2.12547e-02	5.21000e+02
1903	5.24388e+02	1.90300e+03	2.12146e-02	5.24333e+02
1913	5.27648e+02	1.91300e+03	2.11531e-02	5.27667e+02
1923	5.30918e+02	1.92300e+03	2.10988e-02	5.31000e+02
1933	5.34135e+02	1.93300e+03	2.11047e-02	5.34333e+02
1943	5.37360e+02	1.94300e+03	2.10288e-02	5.37667e+02
1953	5.40614e+02	1.95300e+03	2.10388e-02	5.41000e+02
1963	5.43798e+02	1.96300e+03	2.10790e-02	5.44333e+02
1973	5.47007e+02	1.97300e+03	2.10365e-02	5.47667e+02
1983	5.50216e+02	1.98300e+03	2.10008e-02	5.51000e+02
1993	5.53439e+02	1.99300e+03	2.08770e-02	5.54333e+02
2003	5.56648e+02	2.00300e+03	2.08689e-02	5.57667e+02
2013	5.59902e+02	2.01300e+03	2.09152e-02	5.61000e+02
2023	5.63182e+02	2.02300e+03	2.09191e-02	5.64333e+02
2033	5.66474e+02	2.03300e+03	2.09692e-02	5.67667e+02
2043	5.69782e+02	2.04300e+03	2.08344e-02	5.71000e+02
2053	5.73093e+02	2.05300e+03	2.07598e-02	5.74333e+02
2063	5.76326e+02	2.06300e+03	2.07510e-02	5.77667e+02
2073	5.79646e+02	2.07300e+03	2.07224e-02	5.81000e+02
2083	5.82963e+02	2.08300e+03	2.06229e-02	5.84333e+02
2093	5.86310e+02	2.09300e+03	2.06212e-02	5.87667e+02
2103	5.89640e+02	2.10300e+03	2.05969e-02	5.91000e+02
2113	5.93020e+02	2.11300e+03	2.04561e-02	5.94333e+02
2123	5.96454e+02	2.12300e+03	2.04946e-02	5.97667e+02
2133	6.00197e+02	2.13300e+03	2.05815e-02	6.01000e+02
2143	6.03565e+02	2.14300e+03	2.04625e-02	6.04333e+02
2153	6.06792e+02	2.15300e+03	2.03338e-02	6.07667e+02
2163	6.10061e+02	2.16300e+03	2.04946e-02	6.11000e+02
2173	6.13353e+02	2.17300e+03	2.07213e-02	6.14333e+02
2183	6.16603e+02	2.18300e+03	2.07658e-02	6.17667e+02
2193	6.19911e+02	2.19300e+03	2.05961e-02	6.21000e+02
2203	6.23212e+02	2.20300e+03	2.06608e-02	6.24333e+02
2213	6.26516e+02	2.21300e+03	2.06192e-02	6.27667e+02
2223	6.29846e+02	2.22300e+03	2.04354e-02	6.31000e+02
2233	6.33189e+02	2.23300e+03	2.04745e-02	6.34333e+02
2243	6.36524e+02	2.24300e+03	2.03052e-02	6.37667e+02
2253	6.39860e+02	2.25300e+03	2.03261e-02	6.41000e+02
2263	6.43179e+02	2.26300e+03	2.04143e-02	6.44333e+02
2273	6.46470e+02	2.27300e+03	2.04948e-02	6.47667e+02
2283	6.49735e+02	2.28300e+03	2.05052e-02	6.51000e+02
2293	6.53021e+02	2.29300e+03	2.04987e-02	6.54333e+02
2303	6.56268e+02	2.30300e+03	2.05895e-02	6.57667e+02
2313	6.59592e+02	2.31300e+03	2.05817e-02	6.61000e+02
2323	6.63119e+02	2.32300e+03	2.06296e-02	6.64333e+02
2333	6.66721e+02	2.33300e+03	2.04658e-02	6.67667e+02
2343	6.69707e+02	2.34300e+03	2.04877e-02	6.71000e+02
2353	6.73075e+02	2.35300e+03	2.04417e-02	6.74333e+02
2363	6.76458e+02	2.36300e+03	2.04290e-02	6.77667e+02
2373	6.79789e+02	2.37300e+03	2.03346e-02	6.81000e+02
2383	6.83108e+02	2.38300e+03	2.02236e-02	6.84333e+02
2393	6.86445e+02	2.39300e+03	2.02284e-02	6.87667e+02
2403	6.89823e+02	2.40300e+03	2.03092e-02	6.91000e+02
2413	6.92058e+02	2.41300e+03	2.03130e-02	6.94333e+02
2423	6.93976e+02	2.42300e+03	2.02707e-02	6.97667e+02
2430	6.95031e+02	2.43000e+03	2.02222e-02	7.00000e+02