File: Experiments/TUBS/tga_nonisotherm/tga_dynamic_n2_dyn20_powder_2mg_r3.txt
index	ts	t	weight	tr
[#]	[°C]	[s]	[mg]	[°C]
723	1.31023e+02	7.23000e+02	2.03323e+00	1.31000e+02
733	1.34374e+02	7.33000e+02	2.03298e+00	1.34333e+02
743	1.37733e+02	7.43000e+02	2.03260e+00	1.37667e+02
753	1.41087e+02	7.53000e+02	2.03204e+00	1.41000e+02
763	1.44454e+02	7.63000e+02	2.03162e+00	1.44333e+02
773	1.47825e+02	7.73000e+02	2.03095e+00	1.47667e+02
783	1.51189e+02	7.83000e+02	2.02995e+00	1.51000e+02
793	1.54556e+02	7.93000e+02	2.02869e+00	1.54333e+02
803	1.57936e+02	8.03000e+02	2.02756e+00	1.57667e+02
813	1.61296e+02	8.13000e+02	2.02621e+00	1.61000e+02
823	1.64682e+02	8.23000e+02	2.02471e+00	1.64333e+02
833	1.68060e+02	8.33000e+02	2.02301e+00	1.67667e+02
843	1.71437e+02	8.43000e+02	2.02076e+00	1.71000e+02
853	1.74827e+02	8.53000e+02	2.01755e+00	1.74333e+02
863	1.78221e+02	8.63000e+02	2.01318e+00	1.77667e+02
873	1.81620e+02	8.73000e+02	2.00747e+00	1.81000e+02
883	1.85014e+02	8.83000e+02	2.00074e+00	1.84333e+02
893	1.88415e+02	8.93000e+02	1.99289e+00	1.87667e+02
903	1.91817e+02	9.03000e+02	1.98471e+00	1.91000e+02
913	1.95198e+02	9.13000e+02	1.97682e+00	1.94333e+02
923	1.98565e+02	9.23000e+02	1.96981e+00	1.97667e+02
933	2.01904e+02	9.33000e+02	1.96426e+00	2.01000e+02
943	2.05284e+02	9.43000e+02	1.96014e+00	2.04333e+02
953	2.08659e+02	9.53000e+02	1.95724e+00	2.07667e+02
963	2.12039e+02	9.63000e+02	1.95505e+00	2.11000e+02
973	2.15417e+02	9.73000e+02	1.95334e+00	2.14333e+02
983	2.18801e+02	9.83000e+02	1.95176e+00	2.17667e+02
993	2.22193e+02	9.93000e+02	1.95016e+00	2.21000e+02
1003	2.25588e+02	1.00300e+03	1.94853e+00	2.24333e+02
1013	2.28980e+02	1.01300e+03	1.94645e+00	2.27667e+02
1023	2.32398e+02	1.02300e+03	1.94497e+00	2.31000e+02
1033	2.35824e+02	1.03300e+03	1.94356e+00	2.34333e+02
1043	2.39224e+02	1.04300e+03	1.94232e+00	2.37667e+02
1053	2.42656e+02	1.05300e+03	1.94124e+00	2.41000e+02
1063	2.46099e+02	1.06300e+03	1.94028e+00	2.44333e+02
1073	2.49477e+02	1.07300e+03	1.93947e+00	2.47667e+02
1083	2.52864e+02	1.08300e+03	1.93870e+00	2.51000e+02
1093	2.56273e+02	1.09300e+03	1.93761e+00	2.54333e+02
1103	2.59653e+02	1.10300e+03	1.93666e+00	2.57667e+02
1113	2.63065e+02	1.11300e+03	1.93591e+00	2.61000e+02
1123	2.66448e+02	1.12300e+03	1.93485e+00	2.64333e+02
1133	2.69906e+02	1.13300e+03	1.93359e+00	2.67667e+02
1143	2.73370e+02	1.14300e+03	1.93214e+00	2.71000e+02
1153	2.76822e+02	1.15300e+03	1.93030e+00	2.74333e+02
1163	2.80420e+02	1.16300e+03	1.92819e+00	2.77667e+02
1173	2.83871e+02	1.17300e+03	1.92555e+00	2.81000e+02
1183	2.87263e+02	1.18300e+03	1.92210e+00	2.84333e+02
1193	2.90622e+02	1.19300e+03	1.91795e+00	2.87667e+02
1203	2.94057e+02	1.20300e+03	1.91271e+00	2.91000e+02
1213	2.97624e+02	1.21300e+03	1.90645e+00	2.94333e+02
1223	3.00804e+02	1.22300e+03	1.89906e+00	2.97667e+02
1233	3.04004e+02	1.23300e+03	1.89060e+00	3.01000e+02
1243	3.07258e+02	1.24300e+03	1.88115e+00	3.04333e+02
1253	3.10516e+02	1.25300e+03	1.87104e+00	3.07667e+02
1263	3.13851e+02	1.26300e+03	1.86073e+00	3.11000e+02
1273	3.17162e+02	1.27300e+03	1.85027e+00	3.14333e+02
1283	3.20495e+02	1.28300e+03	1.83951e+00	3.17667e+02
1293	3.23890e+02	1.29300e+03	1.82798e+00	3.21000e+02
1303	3.27267e+02	1.30300e+03	1.81501e+00	3.24333e+02
1313	3.30759e+02	1.31300e+03	1.79959e+00	3.27667e+02
1323	3.34123e+02	1.32300e+03	1.78059e+00	3.31000e+02
1333	3.37490e+02	1.33300e+03	1.75719e+00	3.34333e+02
1343	3.40816e+02	1.34300e+03	1.72844e+00	3.37667e+02
1353	3.44164e+02	1.35300e+03	1.69266e+00	3.41000e+02
1363	3.47471e+02	1.36300e+03	1.64908e+00	3.44333e+02
1373	3.50970e+02	1.37300e+03	1.59643e+00	3.47667e+02
1383	3.54379e+02	1.38300e+03	1.53461e+00	3.51000e+02
1393	3.57765e+02	1.39300e+03	1.46268e+00	3.54333e+02
1403	3.61082e+02	1.40300e+03	1.38114e+00	3.57667e+02
1413	3.64386e+02	1.41300e+03	1.29053e+00	3.61000e+02
1423	3.67707e+02	1.42300e+03	1.19192e+00	3.64333e+02
1433	3.71056e+02	1.43300e+03	1.08567e+00	3.67667e+02
1443	3.74383e+02	1.44300e+03	9.74650e-01	3.71000e+02
1453	3.77671e+02	1.45300e+03	8.61022e-01	3.74333e+02
1463	3.81053e+02	1.46300e+03	7.43339e-01	3.77667e+02
1473	3.84448e+02	1.47300e+03	6.28418e-01	3.81000e+02
1483	3.87784e+02	1.48300e+03	5.18794e-01	3.84333e+02
1493	3.91285e+02	1.49300e+03	4.17855e-01	3.87667e+02
1503	3.94735e+02	1.50300e+03	3.27189e-01	3.91000e+02
1513	3.98121e+02	1.51300e+03	2.48634e-01	3.94333e+02
1523	4.01554e+02	1.52300e+03	1.82179e-01	3.97667e+02
1533	4.04921e+02	1.53300e+03	1.28125e-01	4.01000e+02
1543	4.08489e+02	1.54300e+03	8.46609e-02	4.04333e+02
1553	4.12174e+02	1.55300e+03	5.07463e-02	4.07667e+02
1563	4.15387e+02	1.56300e+03	2.48739e-02	4.11000e+02
1573	4.18366e+02	1.57300e+03	6.17696e-03	4.14333e+02
1583	4.21618e+02	1.58300e+03	-7.14982e-03	4.17667e+02
1593	4.24891e+02	1.59300e+03	-1.63224e-02	4.21000e+02
1603	4.28164e+02	1.60300e+03	-2.24922e-02	4.24333e+02
1613	4.31396e+02	1.61300e+03	-2.67743e-02	4.27667e+02
1623	4.34769e+02	1.62300e+03	-2.96151e-02	4.31000e+02
1633	4.38199e+02	1.63300e+03	-3.13803e-02	4.34333e+02
1643	4.41546e+02	1.64300e+03	-3.26616e-02	4.37667e+02
1653	4.44947e+02	1.65300e+03	-3.32693e-02	4.41000e+02
1663	4.48417e+02	1.66300e+03	-3.37195e-02	4.44333e+02
1673	4.51595e+02	1.67300e+03	-3.38421e-02	4.47667e+02
1683	4.54864e+02	1.68300e+03	-3.38481e-02	4.51000e+02
1693	4.57830e+02	1.69300e+03	-3.41057e-02	4.54333e+02
1703	4.60921e+02	1.70300e+03	-3.42368e-02	4.57667e+02
1713	4.64096e+02	1.71300e+03	-3.42254e-02	4.61000e+02
1723	4.67267e+02	1.72300e+03	-3.43950e-02	4.64333e+02
1733	4.70406e+02	1.73300e+03	-3.44678e-02	4.67667e+02
1743	4.73608e+02	1.74300e+03	-3.43484e-02	4.71000e+02
1753	4.76708e+02	1.75300e+03	-3.44676e-02	4.74333e+02
1763	4.79671e+02	1.76300e+03	-3.45994e-02	4.77667e+02
1773	4.82822e+02	1.77300e+03	-3.46979e-02	4.81000e+02
1783	4.86050e+02	1.78300e+03	-3.46008e-02	4.84333e+02
1793	4.89311e+02	1.79300e+03	-3.46214e-02	4.87667e+02
1803	4.92595e+02	1.80300e+03	-3.45935e-02	4.91000e+02
1813	4.95867e+02	1.81300e+03	-3.45890e-02	4.94333e+02
1823	4.99180e+02	1.82300e+03	-3.45895e-02	4.97667e+02
1833	5.02537e+02	1.83300e+03	-3.46922e-02	5.01000e+02
1843	5.05870e+02	1.84300e+03	-3.47772e-02	5.04333e+02
1853	5.09221e+02	1.85300e+03	-3.47021e-02	5.07667e+02
1863	5.12544e+02	1.86300e+03	-3.48458e-02	5.11000e+02
1873	5.15879e+02	1.87300e+03	-3.49371e-02	5.14333e+02
1883	5.19208e+02	1.88300e+03	-3.48300e-02	5.17667e+02
1893	5.22568e+02	1.89300e+03	-3.48442e-02	5.21000e+02
1903	5.25936e+02	1.90300e+03	-3.48470e-02	5.24333e+02
1913	5.29290e+02	1.91300e+03	-3.48156e-02	5.27667e+02
1923	5.32627e+02	1.92300e+03	-3.48498e-02	5.31000e+02
1933	5.36026e+02	1.93300e+03	-3.48637e-02	5.34333e+02
1943	5.39347e+02	1.94300e+03	-3.49710e-02	5.37667e+02
1953	5.42578e+02	1.95300e+03	-3.49042e-02	5.41000e+02
1963	5.45816e+02	1.96300e+03	-3.48861e-02	5.44333e+02
1973	5.48976e+02	1.97300e+03	-3.49324e-02	5.47667e+02
1983	5.52197e+02	1.98300e+03	-3.48240e-02	5.51000e+02
1993	5.55477e+02	1.99300e+03	-3.47910e-02	5.54333e+02
2003	5.58734e+02	2.00300e+03	-3.49911e-02	5.57667e+02
2013	5.62024e+02	2.01300e+03	-3.48823e-02	5.61000e+02
2023	5.65274e+02	2.02300e+03	-3.48464e-02	5.64333e+02
2033	5.68542e+02	2.03300e+03	-3.46857e-02	5.67667e+02
2043	5.71822e+02	2.04300e+03	-3.47982e-02	5.71000e+02
2053	5.75146e+02	2.05300e+03	-3.47972e-02	5.74333e+02
2063	5.78440e+02	2.06300e+03	-3.48445e-02	5.77667e+02
2073	5.81751e+02	2.07300e+03	-3.48760e-02	5.81000e+02
2083	5.85083e+02	2.08300e+03	-3.49339e-02	5.84333e+02
2093	5.88379e+02	2.09300e+03	-3.48485e-02	5.87667e+02
2103	5.91618e+02	2.10300e+03	-3.47594e-02	5.91000e+02
2113	5.94869e+02	2.11300e+03	-3.48516e-02	5.94333e+02
2123	5.98160e+02	2.12300e+03	-3.49664e-02	5.97667e+02
2133	6.01482e+02	2.13300e+03	-3.49025e-02	6.01000e+02
2143	6.04798e+02	2.14300e+03	-3.49380e-02	6.04333e+02
2153	6.08098e+02	2.15300e+03	-3.49649e-02	6.07667e+02
2163	6.11386e+02	2.16300e+03	-3.48930e-02	6.11000e+02
2173	6.14701e+02	2.17300e+03	-3.48012e-02	6.14333e+02
2183	6.18009e+02	2.18300e+03	-3.47566e-02	6.17667e+02
2193	6.21302e+02	2.19300e+03	-3.50504e-02	6.21000e+02
2203	6.24609e+02	2.20300e+03	-3.49170e-02	6.24333e+02
2213	6.27895e+02	2.21300e+03	-3.49655e-02	6.27667e+02
2223	6.31154e+02	2.22300e+03	-3.49539e-02	6.31000e+02
2233	6.34409e+02	2.23300e+03	-3.48808e-02	6.34333e+02
2243	6.37700e+02	2.24300e+03	-3.49939e-02	6.37667e+02
2253	6.40981e+02	2.25300e+03	-3.50216e-02	6.41000e+02
2263	6.44259e+02	2.26300e+03	-3.50730e-02	6.44333e+02
2273	6.47571e+02	2.27300e+03	-3.49849e-02	6.47667e+02
2283	6.50862e+02	2.28300e+03	-3.49689e-02	6.51000e+02
2293	6.54165e+02	2.29300e+03	-3.50246e-02	6.54333e+02
2303	6.57466e+02	2.30300e+03	-3.50101e-02	6.57667e+02
2313	6.60789e+02	2.31300e+03	-3.49546e-02	6.61000e+02
2323	6.64087e+02	2.32300e+03	-3.49957e-02	6.64333e+02
2333	6.67397e+02	2.33300e+03	-3.50342e-02	6.67667e+02
2343	6.70706e+02	2.34300e+03	-3.49560e-02	6.71000e+02
2353	6.74034e+02	2.35300e+03	-3.51386e-02	6.74333e+02
2363	6.77359e+02	2.36300e+03	-3.50372e-02	6.77667e+02
2373	6.80696e+02	2.37300e+03	-3.51557e-02	6.81000e+02
2383	6.84026e+02	2.38300e+03	-3.52377e-02	6.84333e+02
2393	6.87341e+02	2.39300e+03	-3.53215e-02	6.87667e+02
2403	6.90671e+02	2.40300e+03	-3.52112e-02	6.91000e+02
2413	6.92940e+02	2.41300e+03	-3.52096e-02	6.94333e+02
2423	6.94788e+02	2.42300e+03	-3.53228e-02	6.97667e+02
2430	6.95768e+02	2.43000e+03	-3.53239e-02	7.00000e+02