File: Experiments/TUBS/mcc/mcc_piece_3mg_dyn30_r3.txt
Sample Weight (mg):	3.01
Heating Rate (C/s):	0.5
Combustor Temp (C):	900
N2 Flow Rate (cc/min):	80
O2 Flow Rate (cc/min):	20
Time (s)	Temperature (C)	N2 flow rate (cc/min)	O2 flow rate (cc/min)	Flow Rate (cc/min)	Oxygen (%)	HRR (W/g)	Heating rate (C/s)
0.000	89.684	80.002	20.008	100.006	20.180	2.366	-0.101
8.000	89.030	80.001	20.008	100.481	20.130	7.519	-0.029
16.000	88.584	79.999	20.008	100.490	20.123	8.311	-0.020
24.000	88.399	80.000	20.008	100.548	20.117	8.940	-0.012
32.000	88.537	80.001	20.008	100.611	20.101	10.619	0.015
40.000	89.040	80.001	20.008	100.664	20.099	10.804	0.108
48.000	90.064	80.002	20.008	100.648	20.103	10.365	0.125
56.001	91.506	80.001	20.008	100.620	20.101	10.634	0.198
64.000	93.116	80.000	20.008	100.646	20.093	11.403	0.203
72.001	95.095	80.001	20.008	100.680	20.091	11.671	0.268
80.000	97.497	80.000	20.008	100.668	20.086	12.174	0.319
88.000	100.154	80.001	20.008	100.708	20.086	12.211	0.331
96.001	103.232	80.001	20.008	100.703	20.086	12.148	0.399
104.000	106.671	80.001	20.008	100.699	20.083	12.482	0.459
112.000	110.261	80.002	20.008	100.713	20.086	12.181	0.463
120.000	114.127	80.001	20.008	100.707	20.082	12.547	0.466
128.000	118.205	80.002	20.008	100.712	20.088	12.005	0.529
136.000	122.464	80.001	20.008	100.705	20.093	11.455	0.597
144.000	126.906	80.002	20.008	100.677	20.094	11.351	0.613
152.000	131.394	80.000	20.008	100.665	20.098	10.933	0.567
160.000	135.966	80.001	20.008	100.649	20.102	10.507	0.554
168.000	140.537	80.001	20.008	100.687	20.101	10.626	0.563
176.000	145.106	80.000	20.008	100.648	20.106	10.090	0.552
184.000	149.668	80.001	20.008	100.639	20.104	10.304	0.531
192.000	154.247	80.002	20.008	100.623	20.113	9.292	0.576
200.000	158.753	80.001	20.008	100.615	20.113	9.328	0.561
208.000	163.268	80.000	20.008	100.593	20.113	9.306	0.588
216.000	167.615	80.000	20.008	100.572	20.109	9.801	0.565
224.000	171.880	80.002	20.008	100.609	20.109	9.723	0.560
232.000	176.105	79.999	20.008	100.575	20.105	10.181	0.527
240.000	180.331	80.000	20.008	100.580	20.103	10.397	0.498
248.000	184.410	80.001	20.008	100.547	20.098	10.920	0.513
256.000	188.511	80.000	20.008	100.553	20.098	10.938	0.518
264.000	192.519	80.002	20.007	100.536	20.100	10.664	0.475
272.000	196.622	80.001	20.008	100.539	20.099	10.793	0.529
280.000	200.695	80.000	20.008	100.570	20.102	10.524	0.525
288.000	204.697	80.001	20.008	100.547	20.099	10.759	0.491
296.000	208.790	80.002	20.008	100.560	20.099	10.793	0.506
304.000	212.833	80.002	20.008	100.553	20.103	10.404	0.511
312.000	216.858	80.001	20.007	100.527	20.102	10.529	0.486
320.000	220.988	80.001	20.008	100.538	20.105	10.158	0.498
328.000	225.057	80.001	20.008	100.562	20.110	9.637	0.500
336.000	229.066	80.002	20.008	100.550	20.109	9.789	0.502
344.000	233.122	80.001	20.007	100.534	20.097	10.958	0.522
352.000	237.132	80.001	20.008	100.531	20.102	10.513	0.494
360.000	241.126	80.001	20.007	100.534	20.103	10.422	0.496
368.000	245.345	80.000	20.007	100.532	20.102	10.510	0.491
376.000	249.418	80.000	20.008	100.513	20.101	10.580	0.549
384.000	253.536	80.002	20.008	100.520	20.079	12.876	0.547
392.000	257.589	80.000	20.007	100.490	20.078	12.959	0.500
400.000	261.625	80.001	20.007	100.540	20.089	11.797	0.560
408.000	265.644	80.000	20.007	100.532	20.090	11.730	0.491
416.000	269.761	80.001	20.008	100.512	20.079	12.829	0.528
424.000	273.779	80.000	20.008	100.505	20.072	13.556	0.503
432.000	277.786	80.000	20.008	100.519	20.057	15.197	0.447
440.000	281.776	80.001	20.008	100.513	20.052	15.697	0.506
448.000	285.618	80.001	20.008	100.507	20.035	17.471	0.447
456.000	289.522	80.000	20.008	100.506	20.027	18.334	0.487
464.000	293.491	80.002	20.008	100.481	20.021	18.888	0.479
472.000	297.438	80.000	20.008	100.491	20.008	20.287	0.482
480.000	301.520	80.000	20.008	100.501	20.000	21.084	0.519
488.000	305.463	80.000	20.008	100.499	19.989	22.281	0.475
496.000	309.503	80.000	20.008	100.493	19.966	24.644	0.525
504.000	313.505	80.001	20.008	100.524	19.936	27.777	0.501
512.000	317.515	80.002	20.008	100.512	19.887	32.846	0.524
520.000	321.578	80.001	20.008	100.517	19.826	39.281	0.471
528.000	325.563	80.001	20.008	100.523	19.742	48.001	0.508
536.000	329.580	80.001	20.008	100.501	19.634	59.275	0.499
544.000	333.559	80.001	20.008	100.506	19.502	73.002	0.524
552.000	337.569	80.001	20.008	100.495	19.350	88.875	0.562
560.000	341.472	80.001	20.007	100.538	19.169	107.695	0.445
568.000	345.436	80.000	20.008	100.555	18.931	132.564	0.510
576.000	349.306	80.000	20.007	100.480	18.779	148.491	0.445
584.000	353.353	80.001	20.007	100.595	18.614	165.745	0.513
592.000	357.269	80.001	20.008	100.601	18.477	179.998	0.529
600.000	361.257	80.001	20.007	100.626	18.326	195.657	0.539
608.000	365.188	80.001	20.007	100.604	18.213	207.337	0.524
616.000	369.319	80.001	20.008	100.591	18.220	207.011	0.551
624.000	373.356	80.001	20.008	100.664	18.282	200.240	0.504
632.001	377.407	80.001	20.010	100.621	18.382	189.999	0.507
640.000	381.503	80.000	20.009	100.592	18.639	163.273	0.484
648.000	385.676	80.001	20.007	100.697	18.873	138.660	0.499
656.000	389.835	80.000	20.008	100.658	19.076	117.469	0.468
664.000	393.911	80.001	20.008	100.628	19.278	96.409	0.496
672.000	397.945	80.002	20.008	100.603	19.493	73.941	0.506
680.000	401.899	80.000	20.008	100.587	19.680	54.459	0.487
688.000	405.799	80.001	20.008	100.564	19.823	39.532	0.498
696.000	409.733	80.002	20.008	100.573	19.932	28.234	0.514
704.000	413.688	80.000	20.008	100.547	20.016	19.477	0.487
712.000	417.571	80.000	20.008	100.544	20.064	14.449	0.499
720.000	421.471	80.000	20.008	100.500	20.087	11.989	0.522
728.000	425.309	80.001	20.008	100.494	20.111	9.560	0.487
736.000	429.186	80.000	20.007	100.489	20.134	7.179	0.507
744.000	433.074	80.002	20.008	100.467	20.148	5.684	0.482
752.000	437.100	80.001	20.008	100.467	20.158	4.618	0.486
760.000	441.069	80.002	20.008	100.484	20.171	3.249	0.521
768.000	444.937	80.000	20.008	100.482	20.174	2.951	0.494
776.000	449.031	80.003	20.008	100.476	20.176	2.802	0.536
784.000	453.131	80.000	20.008	100.472	20.178	2.598	0.516
792.000	457.106	80.001	20.008	100.506	20.186	1.683	0.465
800.000	461.039	80.001	20.008	100.500	20.189	1.380	0.471
808.000	464.847	80.000	20.007	100.456	20.186	1.752	0.462
816.000	468.673	80.002	20.008	100.467	20.181	2.247	0.491
824.000	472.566	80.002	20.008	100.501	20.187	1.582	0.458
832.001	476.426	80.002	20.008	100.458	20.183	2.013	0.464
840.000	480.390	80.002	20.008	100.460	20.184	1.910	0.477
848.000	484.443	80.003	20.008	100.453	20.184	1.974	0.515
856.000	488.454	80.002	20.008	100.448	20.180	2.337	0.524
864.000	492.571	80.000	20.008	100.437	20.184	1.908	0.484
872.000	496.581	80.002	20.008	100.438	20.181	2.232	0.476
880.000	500.661	80.002	20.008	100.476	20.190	1.296	0.497
888.000	504.385	80.002	20.008	100.430	20.185	1.794	0.445
896.000	508.288	80.002	20.008	100.465	20.189	1.384	0.508
904.000	512.185	80.001	20.008	100.471	20.186	1.721	0.492
912.000	516.127	80.000	20.008	100.459	20.186	1.672	0.512
920.000	520.063	80.002	20.008	100.496	20.193	0.944	0.507
928.000	523.999	80.002	20.008	100.478	20.188	1.543	0.471
936.000	527.964	80.001	20.008	100.485	20.191	1.186	0.485
944.000	531.923	80.002	20.008	100.486	20.188	1.560	0.474
952.000	535.833	80.002	20.008	100.424	20.184	1.884	0.508
960.000	539.683	80.000	20.008	100.488	20.187	1.608	0.487
968.000	543.551	80.002	20.008	100.475	20.185	1.789	0.473
976.000	547.539	80.001	20.008	100.461	20.187	1.662	0.481
984.000	551.395	80.002	20.008	100.468	20.190	1.327	0.508
992.000	555.272	80.003	20.008	100.512	20.195	0.823	0.514
1000.000	559.202	80.003	20.008	100.461	20.185	1.816	0.516
1008.000	563.333	80.001	20.008	100.462	20.184	1.933	0.527
1016.000	567.443	80.001	20.008	100.472	20.188	1.514	0.522
1024.000	571.454	80.002	20.008	100.486	20.191	1.197	0.514
1032.000	575.453	80.002	20.007	100.511	20.198	0.495	0.519
1040.001	579.413	80.002	20.008	100.478	20.190	1.281	0.497
1048.000	583.402	80.002	20.008	100.479	20.193	0.984	0.522
1056.000	587.355	80.001	20.008	100.468	20.189	1.439	0.483
1064.001	591.315	80.002	20.008	100.481	20.190	1.268	0.492
1072.000	595.104	80.001	20.008	100.480	20.183	1.994	0.499
1080.000	599.112	80.002	20.008	100.479	20.184	1.957	0.530
1088.000	603.157	80.002	20.008	100.487	20.188	1.547	0.497
1096.000	607.246	80.003	20.008	100.477	20.183	2.047	0.498
1104.000	611.380	80.002	20.008	100.467	20.185	1.864	0.530
1112.000	615.240	80.001	20.008	100.489	20.188	1.505	0.511
1120.001	619.276	80.002	20.008	100.466	20.182	2.164	0.536
1128.000	623.272	80.001	20.008	100.478	20.187	1.591	0.500
1136.001	627.319	80.003	20.008	100.473	20.187	1.647	0.515
1144.001	631.273	80.001	20.008	100.502	20.189	1.437	0.484
1152.000	635.198	80.001	20.008	100.515	20.187	1.660	0.483
1160.000	639.091	80.000	20.008	100.537	20.191	1.198	0.481
1168.000	643.002	80.000	20.008	100.517	20.187	1.581	0.443
1176.000	646.918	80.002	20.008	100.481	20.187	1.592	0.486
1184.001	650.717	80.002	20.008	100.520	20.191	1.223	0.454
1192.000	654.655	80.000	20.008	100.512	20.188	1.481	0.482
1200.001	658.718	80.001	20.009	100.484	20.189	1.461	0.530
1208.000	663.005	80.003	20.008	100.436	20.174	2.948	0.578
1216.000	667.240	80.003	20.008	100.489	20.181	2.257	0.579
1224.000	671.324	80.001	20.008	100.469	20.176	2.800	0.483
1232.000	675.533	80.001	20.008	100.479	20.177	2.675	0.554
1240.000	679.771	80.002	20.008	100.499	20.178	2.556	0.548
1248.000	684.125	80.002	20.008	100.457	20.180	2.402	0.514
1256.000	688.288	80.001	20.008	100.508	20.182	2.162	0.534
1264.000	692.342	80.001	20.008	100.548	20.184	1.949	0.494
1272.001	696.225	80.001	20.007	100.522	20.186	1.772	0.465
1280.000	700.145	80.002	20.008	100.512	20.182	2.192	0.507
1288.000	704.169	80.001	20.008	100.499	20.178	2.578	0.522
1296.000	708.109	80.001	20.008	100.513	20.173	3.072	0.516
1304.000	711.980	80.001	20.008	100.472	20.167	3.737	0.484
1312.000	715.817	80.001	20.008	100.506	20.164	3.968	0.487
1320.000	719.822	80.000	20.008	100.482	20.163	4.163	0.509
1328.000	723.918	80.002	20.008	100.467	20.160	4.427	0.525
1336.001	728.172	80.001	20.008	100.502	20.164	4.036	0.503
1344.000	732.478	80.001	20.008	100.500	20.166	3.800	0.563
1352.000	736.653	80.003	20.008	100.466	20.167	3.729	0.525
1360.000	740.895	80.002	20.008	100.547	20.169	3.521	0.516
1363.000	742.503	80.002	20.007	100.500	20.167	3.717	0.538