File: Experiments/TUBS/mcc/mcc_powder_3mg_dyn30_r2.txt
Sample Weight (mg):	3.04
Heating Rate (C/s):	0.5
Combustor Temp (C):	900
N2 Flow Rate (cc/min):	80
O2 Flow Rate (cc/min):	20
Time (s)	Temperature (C)	N2 flow rate (cc/min)	O2 flow rate (cc/min)	Flow Rate (cc/min)	Oxygen (%)	HRR (W/g)	Heating rate (C/s)
0.000	90.697	79.998	20.008	99.991	20.160	-7.521	0.009
8.000	90.770	80.002	20.009	100.454	20.100	-1.270	-0.006
16.000	90.920	80.002	20.009	100.566	20.076	1.158	0.032
24.000	91.419	80.002	20.010	100.614	20.060	2.840	0.031
32.000	92.342	80.002	20.009	100.581	20.058	3.002	0.101
40.001	93.492	80.002	20.010	100.632	20.058	2.997	0.208
48.001	95.057	80.002	20.010	100.641	20.054	3.427	0.214
56.001	96.916	80.001	20.009	100.672	20.044	4.482	0.283
64.000	99.032	80.002	20.009	100.737	20.033	5.626	0.292
72.001	101.532	80.004	20.010	100.759	20.030	5.978	0.335
80.001	104.537	80.001	20.009	100.761	20.026	6.384	0.368
88.001	107.953	80.001	20.010	100.772	20.023	6.715	0.432
96.001	111.750	80.001	20.010	100.801	20.018	7.136	0.520
104.001	115.852	80.001	20.010	100.804	20.014	7.622	0.590
112.001	120.161	80.001	20.010	100.778	20.012	7.852	0.545
120.000	124.700	80.002	20.009	100.750	20.013	7.739	0.580
128.000	129.371	80.001	20.010	100.734	20.013	7.647	0.608
136.000	134.248	80.003	20.010	100.703	20.014	7.614	0.630
144.000	139.043	80.001	20.010	100.694	20.005	8.488	0.592
152.000	143.850	80.001	20.009	100.677	19.999	9.183	0.613
160.000	148.577	80.002	20.010	100.688	19.991	9.984	0.542
168.000	153.247	80.001	20.009	100.680	19.981	11.003	0.607
176.000	157.944	80.002	20.008	100.640	19.962	13.004	0.661
184.000	162.584	80.002	20.009	100.607	19.946	14.645	0.583
192.000	167.027	80.002	20.010	100.597	19.932	16.071	0.537
200.000	171.461	80.003	20.010	100.641	19.932	16.011	0.538
208.000	175.788	80.003	20.009	100.610	19.942	15.034	0.532
216.000	180.056	80.002	20.009	100.599	19.964	12.753	0.488
224.000	184.252	80.002	20.010	100.608	19.992	9.838	0.533
232.000	188.382	80.002	20.009	100.651	20.009	8.071	0.499
240.000	192.502	80.001	20.010	100.626	20.015	7.534	0.487
248.000	196.488	80.002	20.009	100.598	20.021	6.891	0.525
256.001	200.369	80.003	20.010	100.615	20.030	5.983	0.459
264.000	204.351	80.002	20.009	100.606	20.029	6.038	0.518
272.000	208.380	80.001	20.010	100.582	20.031	5.849	0.515
280.000	212.330	80.002	20.010	100.591	20.031	5.852	0.486
288.000	216.333	80.003	20.009	100.609	20.034	5.520	0.496
296.000	220.425	80.002	20.009	100.553	20.038	5.090	0.546
304.000	224.434	80.002	20.010	100.592	20.042	4.652	0.541
312.000	228.403	80.001	20.010	100.627	20.042	4.666	0.446
320.001	232.420	80.002	20.010	100.568	20.043	4.559	0.493
328.000	236.406	80.001	20.009	100.583	20.040	4.916	0.449
336.000	240.539	80.004	20.009	100.622	20.041	4.767	0.465
344.000	244.662	80.002	20.009	100.593	20.040	4.930	0.548
352.000	248.824	80.002	20.009	100.587	20.036	5.270	0.519
360.000	252.938	80.002	20.010	100.555	20.030	5.940	0.510
368.000	256.901	80.002	20.009	100.595	20.021	6.817	0.468
376.000	261.046	80.002	20.010	100.567	20.015	7.484	0.541
384.000	265.006	80.003	20.009	100.546	20.001	8.949	0.509
392.000	269.038	80.003	20.010	100.550	19.982	10.895	0.476
400.000	273.047	80.001	20.010	100.555	19.965	12.679	0.473
408.000	276.917	80.004	20.010	100.529	19.943	14.896	0.501
416.000	280.846	80.001	20.008	100.464	19.925	16.773	0.475
424.000	284.753	80.001	20.010	100.547	19.913	18.019	0.502
432.000	288.715	80.002	20.009	100.585	19.902	19.164	0.525
440.000	292.639	80.003	20.010	100.543	19.889	20.464	0.498
448.000	296.629	80.001	20.010	100.561	19.874	21.983	0.538
456.000	300.642	80.002	20.009	100.569	19.855	24.035	0.484
464.000	304.658	80.002	20.009	100.558	19.827	26.832	0.500
472.000	308.692	80.003	20.009	100.534	19.780	31.765	0.506
480.000	312.752	80.003	20.010	100.529	19.710	38.927	0.495
488.000	316.635	80.003	20.009	100.557	19.627	47.518	0.446
496.000	320.657	80.002	20.010	100.512	19.522	58.295	0.539
504.000	324.640	80.003	20.010	100.484	19.407	70.223	0.477
512.000	328.596	80.002	20.010	100.500	19.281	83.202	0.505
520.000	332.607	80.003	20.009	100.483	19.151	96.600	0.485
528.000	336.611	80.001	20.010	100.492	19.020	110.069	0.502
536.000	340.683	80.002	20.009	100.511	18.907	121.797	0.518
544.000	344.660	80.001	20.010	100.496	18.808	132.060	0.517
552.000	348.583	80.001	20.009	100.552	18.729	140.374	0.491
560.000	352.615	80.002	20.010	100.577	18.651	148.327	0.485
568.000	356.484	80.002	20.010	100.641	18.525	161.244	0.505
576.000	360.383	80.002	20.009	100.606	18.372	176.861	0.505
584.000	364.375	80.003	20.008	100.468	18.372	177.414	0.522
592.000	368.370	80.002	20.009	100.610	18.514	162.767	0.501
600.000	372.393	80.002	20.009	100.785	18.611	152.653	0.505
608.000	376.288	80.003	20.009	100.747	18.702	143.167	0.471
616.000	380.316	80.003	20.010	100.723	18.797	133.349	0.500
624.000	384.307	80.002	20.010	100.737	18.929	119.815	0.520
632.000	388.229	80.003	20.009	100.770	19.082	104.022	0.499
640.000	392.283	80.003	20.010	100.746	19.244	87.210	0.510
648.000	396.339	80.002	20.010	100.798	19.403	70.781	0.529
656.000	400.376	80.002	20.010	100.758	19.555	55.021	0.547
664.000	404.311	80.001	20.009	100.764	19.689	41.175	0.524
672.000	408.263	80.002	20.010	100.742	19.800	29.660	0.531
680.001	412.153	80.001	20.009	100.715	19.887	20.724	0.548
688.008	415.989	80.002	20.010	100.700	19.946	14.564	0.494
696.008	419.909	80.002	20.008	100.648	19.991	9.953	0.506
704.009	423.832	80.001	20.009	100.607	20.015	7.477	0.497
712.005	427.725	80.002	20.010	100.588	20.035	5.391	0.479
720.000	431.680	80.002	20.009	100.558	20.047	4.187	0.482
728.000	435.697	80.002	20.009	100.551	20.056	3.275	0.556
736.000	439.648	80.003	20.009	100.543	20.061	2.693	0.518
744.000	443.638	80.002	20.009	100.543	20.064	2.420	0.518
752.000	447.650	80.003	20.009	100.562	20.063	2.520	0.519
760.000	451.647	80.003	20.010	100.525	20.065	2.306	0.507
768.000	455.587	80.001	20.010	100.510	20.063	2.557	0.485
776.000	459.611	80.002	20.009	100.506	20.061	2.708	0.525
784.000	463.429	80.002	20.008	100.520	20.069	1.925	0.470
792.001	467.168	80.001	20.008	100.528	20.064	2.437	0.449
800.000	471.039	80.002	20.009	100.534	20.064	2.431	0.495
808.000	474.919	80.002	20.009	100.519	20.064	2.441	0.522
816.000	478.871	80.002	20.010	100.513	20.068	1.986	0.504
824.000	482.856	80.003	20.009	100.522	20.066	2.230	0.507
832.000	486.859	80.002	20.009	100.524	20.068	2.056	0.493
840.000	490.760	80.004	20.009	100.517	20.066	2.189	0.478
848.000	494.738	80.003	20.009	100.514	20.066	2.245	0.508
856.000	498.733	80.003	20.009	100.492	20.064	2.413	0.474
864.000	502.808	80.002	20.009	100.504	20.061	2.696	0.529
872.000	506.729	80.002	20.010	100.519	20.065	2.304	0.510
880.000	510.606	80.002	20.008	100.529	20.067	2.112	0.480
888.001	514.587	80.001	20.009	100.521	20.065	2.362	0.478
896.000	518.520	80.003	20.009	100.488	20.065	2.269	0.475
904.000	522.403	80.002	20.009	100.502	20.063	2.539	0.495
912.000	526.311	80.002	20.009	100.504	20.062	2.603	0.475
920.000	530.254	80.003	20.009	100.505	20.061	2.754	0.496
928.000	534.249	80.002	20.009	100.497	20.064	2.379	0.504
936.000	538.229	80.002	20.008	100.514	20.070	1.816	0.517
944.000	542.255	80.002	20.009	100.537	20.063	2.502	0.504
952.000	546.319	80.002	20.009	100.515	20.063	2.524	0.478
960.000	550.241	80.003	20.009	100.512	20.062	2.583	0.479
968.000	554.228	80.003	20.009	100.515	20.062	2.594	0.509
976.000	558.120	80.001	20.009	100.489	20.064	2.441	0.439
984.000	562.037	80.001	20.009	100.479	20.065	2.344	0.522
992.000	565.903	80.001	20.008	100.521	20.067	2.066	0.503
1000.000	569.774	80.001	20.009	100.503	20.068	2.016	0.485
1008.000	573.737	80.002	20.008	100.500	20.065	2.273	0.507
1016.000	577.738	80.001	20.008	100.491	20.068	2.001	0.498
1024.000	581.536	80.001	20.008	100.498	20.069	1.951	0.461
1032.000	585.507	80.002	20.008	100.510	20.064	2.391	0.493
1040.000	589.567	80.003	20.009	100.495	20.067	2.066	0.556
1048.000	593.600	80.001	20.009	100.508	20.067	2.082	0.471
1056.000	597.748	80.001	20.009	100.511	20.067	2.125	0.496
1064.000	601.855	80.002	20.009	100.489	20.066	2.254	0.544
1072.000	605.860	80.001	20.009	100.492	20.064	2.393	0.502
1080.000	609.832	80.002	20.009	100.489	20.063	2.504	0.477
1088.000	613.725	80.003	20.009	100.525	20.067	2.145	0.475
1096.000	617.826	80.004	20.009	100.507	20.062	2.675	0.460
1104.000	621.908	80.001	20.009	100.503	20.063	2.550	0.496
1112.000	625.881	80.003	20.009	100.494	20.064	2.424	0.505
1120.000	629.938	80.002	20.009	100.516	20.063	2.474	0.484
1128.001	633.889	80.003	20.008	100.510	20.065	2.337	0.468
1136.000	637.867	80.002	20.009	100.480	20.063	2.561	0.512
1144.000	641.943	80.001	20.009	100.519	20.061	2.719	0.542
1152.000	645.918	80.002	20.009	100.531	20.061	2.767	0.502
1160.000	649.921	80.002	20.009	100.508	20.064	2.469	0.518
1168.000	653.825	80.002	20.009	100.482	20.061	2.685	0.497
1176.000	657.751	80.004	20.009	100.499	20.062	2.628	0.505
1184.000	661.670	80.002	20.009	100.504	20.060	2.829	0.470
1192.000	665.633	80.002	20.009	100.510	20.062	2.651	0.485
1200.000	669.690	80.002	20.009	100.520	20.060	2.823	0.544
1208.000	673.713	80.003	20.009	100.502	20.058	3.040	0.496
1216.000	677.792	80.001	20.008	100.497	20.060	2.855	0.528
1224.000	681.845	80.003	20.008	100.493	20.061	2.760	0.506
1232.001	685.906	80.001	20.008	100.494	20.059	2.905	0.508
1240.001	690.000	80.002	20.008	100.496	20.061	2.735	0.505
1248.000	693.968	80.003	20.010	100.463	20.061	2.770	0.521
1256.001	697.931	80.002	20.009	100.508	20.062	2.657	0.482
1264.000	701.956	80.002	20.008	100.493	20.061	2.765	0.519
1272.000	706.061	80.002	20.008	100.470	20.059	2.973	0.527
1280.000	710.245	80.003	20.008	100.517	20.058	3.024	0.558
1288.000	714.351	80.002	20.008	100.530	20.058	3.077	0.502
1296.000	718.464	80.002	20.008	100.497	20.058	3.022	0.472
1304.000	722.466	80.002	20.009	100.470	20.058	3.074	0.506
1312.000	726.528	80.002	20.008	100.501	20.058	3.011	0.527
1320.000	730.632	80.002	20.008	100.523	20.057	3.112	0.502
1328.000	734.790	80.001	20.009	100.501	20.061	2.779	0.561
1336.000	738.916	80.001	20.009	100.487	20.061	2.714	0.507
1343.500	742.604	80.002	20.009	100.495	20.061	2.738	0.518