File: Experiments/TUBS/mcc/mcc_piece_3mg_dyn30_r1.txt
Sample Weight (mg):	3.01
Heating Rate (C/s):	0.5
Combustor Temp (C):	900
N2 Flow Rate (cc/min):	80
O2 Flow Rate (cc/min):	20
Time (s)	Temperature (C)	N2 flow rate (cc/min)	O2 flow rate (cc/min)	Flow Rate (cc/min)	Oxygen (%)	HRR (W/g)	Heating rate (C/s)
0.000	87.794	80.003	20.008	100.508	20.190	0.476	-0.067
8.000	87.705	80.002	20.009	100.500	20.191	0.414	-0.001
16.000	87.782	80.003	20.008	100.492	20.188	0.678	0.040
24.000	87.965	80.002	20.008	100.519	20.183	1.189	0.058
32.000	88.222	80.003	20.008	100.522	20.184	1.102	0.060
40.001	88.675	80.003	20.008	100.543	20.181	1.431	0.058
48.001	89.281	80.002	20.008	100.608	20.176	1.969	0.068
56.001	90.077	80.002	20.009	100.658	20.172	2.393	0.110
64.000	91.141	80.003	20.008	100.658	20.169	2.710	0.140
72.000	92.472	80.004	20.008	100.748	20.156	4.008	0.178
80.000	94.143	80.002	20.008	100.779	20.147	4.964	0.178
88.000	96.378	80.003	20.009	100.821	20.137	6.029	0.334
96.000	98.987	80.003	20.008	100.802	20.134	6.308	0.305
104.000	101.939	80.003	20.008	100.813	20.139	5.847	0.387
112.000	105.227	80.003	20.009	100.817	20.136	6.117	0.425
120.000	108.785	80.003	20.008	100.820	20.135	6.254	0.416
128.000	112.588	80.003	20.008	100.816	20.127	7.055	0.463
136.000	116.604	80.002	20.008	100.810	20.136	6.162	0.511
144.000	120.890	80.001	20.008	100.814	20.133	6.393	0.556
152.000	125.416	80.002	20.008	100.795	20.141	5.636	0.565
160.000	129.937	80.004	20.009	100.792	20.134	6.333	0.583
168.000	134.478	80.002	20.008	100.743	20.137	6.041	0.585
176.000	138.988	80.003	20.008	100.760	20.141	5.570	0.517
184.000	143.559	80.002	20.008	100.753	20.145	5.183	0.552
192.000	148.148	80.002	20.008	100.744	20.141	5.597	0.561
200.000	152.704	80.003	20.008	100.723	20.143	5.384	0.580
208.000	157.103	80.003	20.008	100.709	20.141	5.573	0.541
216.000	161.533	80.003	20.008	100.691	20.140	5.653	0.586
224.000	165.792	80.002	20.008	100.689	20.136	6.069	0.532
232.000	170.096	80.003	20.009	100.668	20.133	6.461	0.575
240.000	174.324	80.003	20.008	100.644	20.125	7.287	0.524
248.000	178.562	80.004	20.008	100.658	20.120	7.825	0.590
256.000	182.709	80.003	20.008	100.656	20.117	8.069	0.536
264.000	186.745	80.002	20.008	100.642	20.114	8.364	0.459
272.000	190.672	80.001	20.008	100.667	20.118	7.981	0.458
280.000	194.632	80.002	20.008	100.651	20.116	8.239	0.493
288.000	198.673	80.003	20.008	100.641	20.114	8.367	0.491
296.000	202.608	80.002	20.008	100.683	20.116	8.231	0.460
304.000	206.650	80.003	20.008	100.612	20.109	8.946	0.509
312.000	210.583	80.002	20.008	100.610	20.107	9.185	0.495
320.000	214.430	80.003	20.008	100.629	20.110	8.836	0.471
328.000	218.301	80.002	20.009	100.620	20.108	9.065	0.494
336.000	222.321	80.002	20.008	100.628	20.103	9.601	0.524
344.000	226.238	80.003	20.008	100.622	20.102	9.697	0.476
352.000	230.254	80.001	20.009	100.619	20.102	9.708	0.514
360.000	234.300	80.003	20.008	100.605	20.101	9.814	0.475
368.000	238.381	80.003	20.008	100.604	20.105	9.322	0.502
376.000	242.472	80.002	20.008	100.621	20.104	9.487	0.551
384.000	246.633	80.001	20.008	100.603	20.102	9.662	0.528
392.000	250.773	80.001	20.009	100.603	20.100	9.855	0.485
400.000	254.823	80.002	20.008	100.592	20.097	10.155	0.530
408.000	258.850	80.003	20.008	100.583	20.094	10.449	0.523
416.000	262.845	80.002	20.008	100.575	20.089	11.013	0.491
424.000	266.865	80.002	20.008	100.596	20.084	11.510	0.519
432.000	270.886	80.004	20.008	100.551	20.068	13.224	0.523
440.000	274.890	80.003	20.008	100.610	20.060	14.072	0.491
448.000	278.971	80.002	20.008	100.585	20.048	15.274	0.466
456.001	282.971	80.003	20.008	100.576	20.038	16.297	0.539
464.000	286.961	80.003	20.008	100.581	20.029	17.236	0.483
472.000	291.032	80.002	20.008	100.544	20.012	19.073	0.508
480.000	295.028	80.002	20.008	100.583	20.006	19.705	0.477
488.000	299.084	80.001	20.007	100.587	19.997	20.576	0.508
496.000	303.083	80.004	20.009	100.606	19.992	21.130	0.507
504.000	307.102	80.001	20.008	100.608	19.975	22.885	0.452
512.000	311.003	80.003	20.008	100.608	19.950	25.531	0.534
520.000	315.040	80.003	20.008	100.585	19.903	30.391	0.514
528.000	319.159	80.003	20.009	100.572	19.843	36.647	0.532
536.000	323.095	80.002	20.009	100.554	19.765	44.759	0.460
544.000	327.113	80.003	20.008	100.587	19.669	54.820	0.475
552.000	330.995	80.002	20.008	100.579	19.532	69.035	0.505
560.000	334.908	80.003	20.008	100.566	19.378	85.127	0.509
568.001	338.813	80.002	20.009	100.557	19.201	103.509	0.513
576.000	342.747	80.002	20.008	100.572	18.978	126.851	0.493
584.000	346.703	80.002	20.009	100.542	18.787	146.819	0.504
592.000	350.628	80.003	20.008	100.593	18.634	162.832	0.526
600.000	354.550	80.003	20.008	100.622	18.516	175.129	0.470
608.000	358.553	80.002	20.008	100.688	18.372	190.074	0.485
616.000	362.647	80.001	20.009	100.649	18.233	204.656	0.504
624.000	366.683	80.001	20.007	100.630	18.221	206.132	0.498
632.000	370.794	80.003	20.007	100.692	18.316	196.096	0.477
640.000	374.865	80.001	20.008	100.768	18.399	187.553	0.547
648.000	378.829	80.003	20.007	100.707	18.574	169.181	0.492
656.000	382.900	80.001	20.009	100.729	18.779	147.867	0.514
664.000	386.985	80.002	20.008	100.766	18.967	128.209	0.501
672.000	391.230	80.003	20.008	100.742	19.146	109.471	0.555
680.000	395.275	80.004	20.008	100.706	19.330	90.254	0.484
688.000	399.131	80.002	20.008	100.686	19.526	69.768	0.472
696.000	403.145	80.002	20.008	100.709	19.700	51.623	0.501
704.000	406.885	80.003	20.008	100.713	19.830	38.079	0.467
712.000	410.802	80.002	20.008	100.684	19.933	27.328	0.495
720.000	414.638	80.001	20.008	100.638	20.004	19.882	0.441
728.000	418.695	80.002	20.008	100.581	20.043	15.764	0.537
736.000	422.668	80.001	20.008	100.584	20.071	12.849	0.511
744.000	426.653	80.002	20.008	100.551	20.087	11.178	0.515
752.000	430.609	80.002	20.008	100.545	20.103	9.540	0.486
760.000	434.549	80.002	20.008	100.552	20.115	8.343	0.464
768.000	438.502	80.002	20.008	100.509	20.117	8.141	0.469
776.000	442.542	80.001	20.007	100.538	20.126	7.171	0.496
784.000	446.393	80.003	20.008	100.559	20.133	6.384	0.428
792.000	450.412	80.000	20.008	100.534	20.135	6.235	0.508
800.000	454.335	80.004	20.008	100.549	20.138	5.881	0.450
808.000	458.304	80.002	20.008	100.545	20.136	6.085	0.481
816.000	462.270	80.002	20.009	100.528	20.134	6.323	0.475
824.000	466.104	80.004	20.008	100.514	20.132	6.546	0.493
832.000	469.997	80.001	20.008	100.482	20.122	7.559	0.507
840.000	473.830	80.001	20.008	100.530	20.131	6.663	0.446
848.000	477.636	80.001	20.008	100.532	20.133	6.409	0.509
856.000	481.469	80.002	20.008	100.519	20.132	6.554	0.486
864.000	485.439	80.004	20.008	100.501	20.136	6.119	0.444
872.001	489.336	80.003	20.008	100.518	20.134	6.282	0.493
880.000	493.257	80.003	20.008	100.536	20.141	5.593	0.481
888.000	497.176	80.002	20.008	100.511	20.133	6.369	0.486
896.000	501.127	80.002	20.008	100.523	20.131	6.618	0.478
904.000	504.971	80.003	20.008	100.475	20.127	7.070	0.499
912.000	508.980	80.001	20.008	100.460	20.126	7.146	0.488
920.000	513.027	80.004	20.008	100.500	20.132	6.569	0.471
928.000	517.141	80.002	20.008	100.490	20.128	6.977	0.530
936.000	521.188	80.003	20.008	100.485	20.126	7.188	0.536
944.000	525.236	80.003	20.008	100.503	20.128	6.985	0.542
952.000	529.324	80.001	20.008	100.498	20.128	6.932	0.488
960.000	533.415	80.002	20.008	100.485	20.131	6.616	0.521
968.000	537.424	80.003	20.008	100.522	20.131	6.646	0.465
976.000	541.422	80.002	20.008	100.524	20.135	6.186	0.455
984.000	545.338	80.001	20.009	100.501	20.133	6.407	0.526
992.000	549.206	80.003	20.008	100.533	20.137	6.023	0.486
1000.000	553.173	80.002	20.008	100.504	20.131	6.596	0.473
1008.000	557.139	80.004	20.008	100.503	20.130	6.694	0.506
1016.000	561.071	80.002	20.009	100.511	20.130	6.716	0.528
1024.001	565.115	80.001	20.009	100.514	20.126	7.194	0.488
1032.000	569.112	80.003	20.009	100.534	20.131	6.587	0.545
1040.000	573.040	80.001	20.009	100.526	20.138	5.905	0.455
1048.001	576.974	80.003	20.009	100.501	20.134	6.358	0.475
1056.000	580.960	80.001	20.009	100.503	20.136	6.093	0.510
1064.000	584.908	80.002	20.009	100.539	20.138	5.922	0.471
1072.000	588.836	80.002	20.009	100.493	20.137	5.987	0.516
1080.000	592.717	80.003	20.009	100.536	20.133	6.406	0.479
1088.000	596.676	80.003	20.009	100.527	20.137	5.979	0.521
1096.001	600.589	80.001	20.009	100.525	20.137	5.976	0.483
1104.000	604.534	80.002	20.009	100.528	20.144	5.235	0.497
1112.000	608.429	80.002	20.009	100.482	20.135	6.242	0.477
1120.000	612.395	80.002	20.009	100.501	20.138	5.929	0.512
1128.001	616.375	80.002	20.009	100.495	20.137	6.053	0.498
1136.000	620.530	80.001	20.009	100.502	20.139	5.780	0.541
1144.000	624.559	80.002	20.009	100.502	20.145	5.211	0.462
1152.000	628.580	80.003	20.009	100.528	20.139	5.807	0.480
1160.000	632.517	80.004	20.009	100.510	20.137	6.006	0.518
1168.000	636.343	80.002	20.009	100.510	20.143	5.332	0.450
1176.000	640.324	80.002	20.009	100.536	20.146	5.083	0.500
1184.000	644.297	80.003	20.010	100.534	20.146	5.088	0.465
1192.000	648.203	80.003	20.009	100.500	20.140	5.667	0.486
1200.000	652.331	80.003	20.009	100.516	20.141	5.549	0.513
1208.000	656.415	80.003	20.009	100.517	20.143	5.405	0.512
1216.000	660.439	80.002	20.008	100.541	20.143	5.394	0.490
1224.000	664.562	80.001	20.009	100.521	20.141	5.545	0.483
1232.000	668.648	80.002	20.009	100.502	20.141	5.556	0.535
1240.000	672.814	80.002	20.010	100.541	20.147	4.998	0.558
1248.000	676.917	80.002	20.009	100.510	20.148	4.835	0.500
1256.000	680.796	80.001	20.010	100.517	20.145	5.204	0.467
1264.000	684.692	80.002	20.010	100.536	20.151	4.498	0.456
1272.001	688.467	80.002	20.009	100.542	20.151	4.568	0.478
1280.000	692.397	80.002	20.009	100.520	20.145	5.156	0.514
1288.000	696.413	80.002	20.009	100.509	20.137	6.044	0.508
1296.000	700.489	80.002	20.008	100.552	20.138	5.865	0.489
1304.001	704.543	80.002	20.010	100.525	20.137	5.990	0.519
1312.000	708.814	80.002	20.008	100.529	20.139	5.756	0.545
1320.001	713.064	80.003	20.008	100.524	20.141	5.569	0.518
1328.000	717.284	80.002	20.008	100.505	20.140	5.710	0.529
1336.000	721.463	80.003	20.008	100.499	20.142	5.533	0.515
1344.000	725.545	80.002	20.009	100.526	20.143	5.393	0.511
1352.000	729.616	80.002	20.010	100.527	20.146	5.075	0.508
1360.000	733.663	80.003	20.009	100.499	20.145	5.192	0.480
1368.000	737.676	80.003	20.009	100.532	20.151	4.569	0.480
1376.000	741.667	80.002	20.009	100.536	20.147	4.975	0.476
1381.000	744.108	80.002	20.009	100.521	20.144	5.326	0.543