File: Experiments/TUBS/mcc/mcc_powder_1mg_dyn30_r2.txt
Sample Weight (mg):	1.02
Heating Rate (C/s):	0.5
Combustor Temp (C):	900
N2 Flow Rate (cc/min):	80
O2 Flow Rate (cc/min):	20
Time (s)	Temperature (C)	N2 flow rate (cc/min)	O2 flow rate (cc/min)	Flow Rate (cc/min)	Oxygen (%)	HRR (W/g)	Heating rate (C/s)
0.000	89.397	80.004	20.009	100.253	20.032	0.026	0.027
8.000	90.068	80.005	20.009	100.261	20.034	-0.546	0.084
16.000	90.771	80.006	20.005	100.337	20.028	1.301	0.099
24.000	91.451	80.003	20.009	100.339	20.032	-0.124	0.058
32.000	92.322	80.004	20.009	100.391	20.010	6.736	0.115
40.000	93.532	80.003	20.009	100.406	20.004	8.689	0.193
48.000	94.963	80.003	20.009	100.428	19.988	13.400	0.211
56.000	96.782	80.005	20.009	100.496	19.983	14.920	0.270
64.000	99.198	80.003	20.009	100.512	19.980	15.952	0.318
72.001	101.869	80.003	20.009	100.497	19.978	16.554	0.340
80.001	104.991	80.004	20.010	100.522	19.976	17.197	0.378
88.000	108.356	80.003	20.010	100.541	19.975	17.378	0.445
96.001	112.017	80.004	20.010	100.555	19.975	17.418	0.473
104.000	116.039	80.003	20.009	100.565	19.976	17.151	0.508
112.001	120.156	80.003	20.008	100.534	19.974	17.796	0.505
120.000	124.525	80.005	20.009	100.526	19.980	16.044	0.577
128.000	128.946	80.003	20.008	100.531	19.983	14.950	0.536
136.000	133.523	80.004	20.009	100.505	19.984	14.671	0.562
144.000	138.176	80.004	20.009	100.476	19.983	15.143	0.574
152.000	142.745	80.004	20.009	100.487	19.985	14.344	0.589
160.000	147.341	80.003	20.009	100.458	19.987	13.679	0.608
168.000	151.878	80.003	20.009	100.470	19.980	16.022	0.578
176.000	156.437	80.004	20.009	100.461	19.977	16.870	0.574
184.000	160.822	80.005	20.009	100.446	19.973	18.190	0.536
192.000	165.282	80.004	20.009	100.414	19.969	19.401	0.577
200.000	169.660	80.003	20.009	100.416	19.963	21.024	0.560
208.000	173.986	80.004	20.009	100.405	19.960	22.055	0.530
216.000	178.265	80.003	20.009	100.398	19.962	21.348	0.548
224.000	182.462	80.003	20.009	100.415	19.965	20.567	0.561
232.000	186.649	80.004	20.009	100.399	19.975	17.385	0.526
240.000	190.691	80.003	20.009	100.405	19.985	14.352	0.461
248.000	194.861	80.005	20.010	100.400	19.989	13.033	0.532
256.000	198.886	80.002	20.009	100.393	19.999	9.973	0.541
264.000	202.844	80.004	20.009	100.405	20.001	9.425	0.484
272.000	206.935	80.003	20.010	100.394	20.005	8.191	0.509
280.000	211.026	80.006	20.009	100.384	20.010	6.647	0.515
288.000	214.980	80.004	20.009	100.396	20.010	6.812	0.475
296.000	219.117	80.003	20.009	100.384	20.009	7.188	0.507
304.000	223.050	80.004	20.009	100.382	20.007	7.552	0.511
312.000	227.096	80.004	20.010	100.377	20.009	6.902	0.506
320.000	230.983	80.004	20.009	100.356	20.012	6.206	0.496
328.000	235.030	80.006	20.009	100.385	20.010	6.785	0.494
336.000	239.053	80.005	20.009	100.396	20.008	7.455	0.489
344.000	243.102	80.005	20.009	100.361	20.009	7.194	0.550
352.000	247.121	80.004	20.009	100.378	20.012	6.120	0.498
360.000	251.074	80.003	20.009	100.355	20.010	6.731	0.486
368.000	255.054	80.003	20.009	100.337	20.015	5.190	0.418
376.000	259.113	80.003	20.010	100.346	20.010	6.699	0.580
384.000	263.148	80.003	20.009	100.355	20.011	6.418	0.391
392.000	267.107	80.005	20.010	100.334	20.010	6.718	0.409
400.000	271.113	80.004	20.010	100.359	19.999	9.987	0.622
408.000	275.169	80.004	20.010	100.328	19.993	11.947	0.495
416.000	279.175	80.003	20.010	100.335	19.989	13.123	0.502
424.000	283.109	80.004	20.009	100.355	19.976	17.046	0.416
432.000	287.224	80.003	20.009	100.337	19.971	18.623	0.599
440.000	291.152	80.004	20.009	100.358	19.964	20.791	0.477
448.000	295.240	80.005	20.010	100.359	19.968	19.634	0.560
456.000	299.212	80.004	20.010	100.337	19.956	23.247	0.509
464.001	303.273	80.004	20.009	100.348	19.955	23.621	0.503
472.001	307.237	80.004	20.009	100.343	19.954	23.900	0.429
480.000	311.383	80.003	20.009	100.350	19.947	26.032	0.442
488.000	315.582	80.004	20.009	100.364	19.933	30.486	0.473
496.000	319.776	80.003	20.009	100.332	19.904	39.207	0.505
504.001	323.907	80.004	20.009	100.315	19.865	51.206	0.539
512.000	327.967	80.005	20.009	100.302	19.829	62.194	0.520
520.000	331.890	80.005	20.009	100.294	19.778	77.975	0.577
528.000	336.003	80.005	20.009	100.302	19.727	93.683	0.618
536.000	339.874	80.004	20.009	100.289	19.675	109.470	0.477
544.000	343.879	80.004	20.008	100.293	19.619	126.799	0.510
552.000	347.991	80.003	20.009	100.291	19.570	141.701	0.497
560.000	351.908	80.005	20.009	100.300	19.534	152.754	0.445
568.000	355.916	80.003	20.009	100.329	19.481	169.020	0.562
576.000	359.937	80.004	20.009	100.308	19.439	181.887	0.496
584.000	363.748	80.003	20.008	100.332	19.419	187.948	0.514
592.000	367.763	80.005	20.009	100.322	19.416	189.106	0.453
600.000	371.840	80.007	20.009	100.340	19.436	182.942	0.545
608.000	375.560	80.003	20.009	100.401	19.457	176.543	0.368
616.000	379.469	80.004	20.009	100.382	19.503	162.522	0.356
624.000	383.370	80.004	20.009	100.391	19.561	144.605	0.505
632.000	387.427	80.004	20.009	100.434	19.622	125.993	0.523
640.000	391.310	80.005	20.010	100.426	19.697	102.801	0.437
648.000	395.213	80.004	20.008	100.481	19.755	85.181	0.379
656.000	399.254	80.003	20.009	100.426	19.823	64.037	0.553
664.000	403.200	80.004	20.009	100.435	19.870	49.883	0.472
672.000	407.084	80.004	20.008	100.413	19.914	36.162	0.511
680.000	411.098	80.006	20.009	100.414	19.951	24.777	0.480
688.000	415.129	80.004	20.009	100.386	19.977	17.003	0.583
696.000	419.088	80.004	20.009	100.386	20.001	9.520	0.495
704.000	423.121	80.004	20.009	100.357	20.005	8.135	0.531
712.000	426.922	80.002	20.008	100.359	20.014	5.436	0.484
720.000	430.821	80.004	20.008	100.352	20.023	2.893	0.471
728.000	434.725	80.004	20.009	100.335	20.027	1.398	0.355
736.000	438.608	80.003	20.009	100.350	20.028	1.203	0.466
744.000	442.598	80.004	20.009	100.327	20.033	-0.273	0.565
752.000	446.540	80.003	20.009	100.326	20.024	2.503	0.494
760.000	450.625	80.005	20.009	100.299	20.021	3.484	0.562
768.000	454.277	80.004	20.009	100.316	20.027	1.528	0.328
776.000	458.217	80.005	20.010	100.330	20.026	1.795	0.521
784.000	462.228	80.004	20.009	100.330	20.028	1.066	0.506
792.000	466.082	80.004	20.009	100.327	20.030	0.702	0.539
800.000	469.837	80.004	20.008	100.331	20.028	1.073	0.508
808.000	473.675	80.005	20.009	100.308	20.028	1.157	0.311
816.000	477.717	80.004	20.009	100.314	20.031	0.208	0.509
824.000	481.468	80.005	20.009	100.324	20.030	0.689	0.564
832.000	485.642	80.006	20.009	100.335	20.035	-0.800	0.566
840.000	489.521	80.004	20.008	100.322	20.033	-0.468	0.540
848.000	493.722	80.004	20.009	100.311	20.034	-0.748	0.559
856.000	497.620	80.004	20.008	100.317	20.034	-0.494	0.572
864.000	501.703	80.005	20.008	100.311	20.026	1.710	0.533
872.000	505.712	80.004	20.008	100.329	20.030	0.728	0.576
880.000	509.441	80.003	20.009	100.331	20.040	-2.561	0.261
888.000	513.481	80.005	20.009	100.326	20.036	-1.105	0.485
896.000	517.793	80.006	20.010	100.296	20.025	2.035	0.493
904.000	521.699	80.005	20.009	100.328	20.031	0.273	0.514
912.000	525.482	80.006	20.010	100.313	20.032	-0.137	0.547
920.000	529.262	80.004	20.009	100.322	20.027	1.372	0.516
928.001	533.091	80.002	20.009	100.331	20.034	-0.572	0.460
936.000	537.130	80.006	20.010	100.302	20.038	-1.723	0.601
944.000	540.933	80.003	20.009	100.335	20.031	0.429	0.501
952.000	544.957	80.004	20.009	100.321	20.031	0.306	0.435
960.000	548.766	80.005	20.009	100.321	20.033	-0.306	0.416
968.000	552.763	80.004	20.009	100.312	20.030	0.540	0.517
976.000	556.794	80.004	20.009	100.317	20.034	-0.533	0.566
984.000	560.517	80.003	20.009	100.330	20.033	-0.429	0.446
992.000	564.447	80.004	20.009	100.322	20.037	-1.573	0.626
1000.000	568.305	80.003	20.009	100.325	20.029	1.027	0.478
1008.000	572.268	80.004	20.009	100.320	20.027	1.450	0.630
1016.000	576.066	80.004	20.009	100.332	20.029	0.845	0.449
1024.000	579.988	80.005	20.010	100.317	20.030	0.689	0.603
1032.000	583.900	80.004	20.009	100.331	20.027	1.567	0.491
1040.000	587.907	80.004	20.010	100.327	20.028	1.326	0.537
1048.000	591.860	80.003	20.009	100.334	20.030	0.501	0.499
1056.000	595.883	80.004	20.010	100.323	20.030	0.650	0.501
1064.000	600.038	80.005	20.009	100.354	20.029	0.800	0.583
1072.000	604.142	80.003	20.010	100.337	20.028	1.209	0.596
1080.000	608.267	80.004	20.010	100.324	20.034	-0.709	0.494
1088.001	612.276	80.004	20.009	100.320	20.028	1.066	0.487
1096.000	616.363	80.004	20.010	100.318	20.032	-0.072	0.572
1104.000	620.182	80.004	20.009	100.324	20.034	-0.494	0.505
1112.000	624.163	80.005	20.009	100.361	20.036	-1.255	0.525
1120.000	628.155	80.003	20.010	100.347	20.036	-1.216	0.479
1128.001	632.068	80.005	20.009	100.326	20.034	-0.514	0.406
1136.000	636.220	80.004	20.010	100.340	20.031	0.429	0.566
1144.000	640.213	80.003	20.010	100.334	20.030	0.650	0.500
1152.000	644.161	80.004	20.010	100.349	20.031	0.208	0.493
1160.000	648.097	80.004	20.010	100.345	20.031	0.377	0.453
1168.001	651.986	80.004	20.010	100.349	20.025	2.230	0.525
1176.001	655.992	80.004	20.010	100.359	20.030	0.462	0.449
1184.000	660.029	80.004	20.010	100.330	20.024	2.289	0.513
1192.000	664.235	80.004	20.010	100.347	20.031	0.247	0.509
1200.000	668.293	80.005	20.010	100.353	20.028	1.138	0.490
1208.001	672.374	80.004	20.009	100.359	20.028	1.340	0.479
1216.000	676.407	80.004	20.010	100.335	20.028	1.268	0.479
1224.001	680.230	80.006	20.010	100.351	20.031	0.403	0.509
1232.000	684.160	80.005	20.009	100.364	20.030	0.598	0.473
1240.000	688.178	80.006	20.010	100.363	20.034	-0.540	0.353
1248.000	692.021	80.005	20.010	100.353	20.032	-0.137	0.558
1256.000	696.150	80.005	20.010	100.348	20.028	1.210	0.560
1264.000	700.078	80.003	20.009	100.374	20.025	2.075	0.472
1272.000	704.118	80.005	20.010	100.401	20.026	1.873	0.510
1280.001	708.308	80.007	20.010	100.366	20.029	0.904	0.483
1288.001	712.406	80.005	20.010	100.351	20.029	0.891	0.531
1296.000	716.598	80.003	20.010	100.343	20.023	2.810	0.677
1304.000	720.497	80.003	20.009	100.354	20.025	2.185	0.301
1312.001	724.561	80.004	20.010	100.388	20.023	2.732	0.506
1320.000	728.672	80.005	20.010	100.357	20.030	0.722	0.472
1328.000	732.894	80.006	20.010	100.373	20.019	4.000	0.637
1336.000	737.018	80.004	20.010	100.344	20.016	4.853	0.559
1344.000	740.978	80.005	20.010	100.388	20.020	3.532	0.480
1347.501	742.757	80.004	20.010	100.379	20.018	4.196	0.608