File: Experiments/TUBS/mcc/mcc_powder_2mg_dyn30_r1.txt
Sample Weight (mg):	2.01
Heating Rate (C/s):	0.5
Combustor Temp (C):	900
N2 Flow Rate (cc/min):	80
O2 Flow Rate (cc/min):	20
Time (s)	Temperature (C)	N2 flow rate (cc/min)	O2 flow rate (cc/min)	Flow Rate (cc/min)	Oxygen (%)	HRR (W/g)	Heating rate (C/s)
-0.001	86.426	80.004	20.011	100.210	20.058	3.081	-0.101
7.999	85.856	80.005	20.010	100.184	20.064	2.188	-0.040
15.999	85.563	80.005	20.010	100.228	20.056	3.437	-0.032
23.999	85.512	80.005	20.010	100.217	20.051	4.152	0.064
31.999	85.612	80.005	20.010	100.190	20.058	3.033	0.019
39.999	85.966	80.004	20.010	100.239	20.058	3.127	0.057
47.999	86.591	80.003	20.010	100.262	20.070	1.171	0.082
55.999	87.471	80.005	20.010	100.304	20.049	4.425	0.175
63.999	88.596	80.004	20.010	100.353	20.031	7.262	0.175
71.999	90.015	80.004	20.010	100.489	20.018	9.376	0.211
79.999	91.995	80.004	20.010	100.441	20.016	9.627	0.221
87.999	94.503	80.004	20.010	100.430	20.014	9.893	0.313
95.999	97.326	80.003	20.010	100.417	20.012	10.331	0.442
103.999	100.364	80.004	20.009	100.423	20.015	9.746	0.399
111.999	103.932	80.004	20.009	100.482	20.011	10.474	0.478
119.999	107.573	80.004	20.009	100.473	20.005	11.383	0.439
127.999	111.510	80.005	20.009	100.424	20.004	11.546	0.470
135.999	115.876	80.004	20.009	100.453	20.002	11.848	0.600
143.999	120.217	80.003	20.009	100.455	20.005	11.394	0.506
151.999	124.725	80.004	20.009	100.457	20.012	10.193	0.518
159.999	129.300	80.006	20.009	100.384	20.006	11.220	0.537
167.999	134.094	80.005	20.009	100.388	20.004	11.485	0.560
175.999	138.678	80.005	20.010	100.431	20.019	9.184	0.585
183.999	143.277	80.003	20.010	100.390	20.008	10.880	0.456
192.000	147.774	80.004	20.010	100.346	20.011	10.364	0.550
200.000	152.331	80.005	20.010	100.326	20.002	11.760	0.573
207.999	156.801	80.004	20.009	100.344	19.990	13.755	0.477
216.001	161.128	80.005	20.009	100.357	19.980	15.246	0.568
223.999	165.333	80.005	20.010	100.301	19.965	17.491	0.533
231.999	169.493	80.005	20.010	100.277	19.962	18.017	0.481
239.999	173.719	80.004	20.009	100.314	19.963	17.924	0.546
247.999	177.871	80.003	20.009	100.311	19.971	16.684	0.524
255.999	181.912	80.005	20.009	100.310	19.987	14.173	0.556
263.999	185.926	80.005	20.009	100.323	19.997	12.532	0.550
271.999	190.010	80.004	20.009	100.352	20.009	10.746	0.532
280.000	193.884	80.005	20.009	100.364	20.015	9.808	0.452
288.000	197.988	80.005	20.010	100.341	20.021	8.840	0.435
295.999	201.997	80.004	20.009	100.331	20.025	8.199	0.508
303.999	206.079	80.004	20.010	100.333	20.025	8.231	0.504
311.999	210.082	80.005	20.010	100.318	20.027	7.858	0.565
319.999	214.059	80.006	20.009	100.338	20.028	7.757	0.515
328.000	218.047	80.005	20.009	100.308	20.027	7.873	0.463
336.000	222.068	80.005	20.010	100.300	20.025	8.198	0.464
343.999	226.163	80.003	20.009	100.336	20.027	7.874	0.481
351.999	230.250	80.004	20.009	100.278	20.033	7.060	0.461
360.000	234.267	80.005	20.009	100.310	20.037	6.410	0.493
367.999	238.409	80.005	20.009	100.304	20.033	7.021	0.533
375.999	242.485	80.005	20.010	100.287	20.032	7.214	0.485
383.999	246.523	80.005	20.010	100.281	20.032	7.105	0.521
392.000	250.544	80.005	20.009	100.334	20.035	6.707	0.514
399.999	254.549	80.004	20.009	100.278	20.032	7.160	0.469
408.000	258.639	80.006	20.009	100.326	20.024	8.323	0.509
415.999	262.659	80.005	20.008	100.298	20.019	9.230	0.467
423.999	266.625	80.005	20.009	100.287	20.012	10.273	0.487
432.000	270.623	80.005	20.009	100.293	20.001	12.024	0.423
439.999	274.596	80.005	20.009	100.293	19.995	12.870	0.518
447.999	278.660	80.006	20.009	100.298	19.975	15.963	0.508
455.999	282.649	80.004	20.009	100.288	19.962	18.022	0.502
463.999	286.629	80.005	20.009	100.268	19.949	20.016	0.468
472.000	290.571	80.004	20.008	100.291	19.946	20.481	0.463
479.999	294.614	80.005	20.009	100.284	19.937	21.912	0.534
487.999	298.661	80.007	20.009	100.291	19.935	22.310	0.524
495.999	302.679	80.006	20.009	100.295	19.920	24.611	0.492
504.000	306.778	80.006	20.008	100.329	19.904	27.067	0.504
512.000	310.762	80.006	20.009	100.284	19.878	31.070	0.482
520.000	314.831	80.006	20.009	100.291	19.831	38.442	0.491
527.999	318.920	80.005	20.009	100.236	19.778	46.597	0.598
535.999	322.910	80.005	20.009	100.252	19.709	57.426	0.522
544.000	326.951	80.006	20.009	100.195	19.631	69.502	0.513
552.000	330.772	80.006	20.009	100.184	19.542	83.319	0.465
559.999	334.778	80.006	20.009	100.185	19.458	96.404	0.469
568.000	338.691	80.005	20.009	100.156	19.363	111.240	0.431
575.999	342.711	80.003	20.009	100.191	19.281	124.049	0.515
583.999	346.774	80.004	20.009	100.204	19.213	134.466	0.595
591.999	350.777	80.005	20.009	100.213	19.151	144.344	0.543
599.999	354.753	80.005	20.010	100.266	19.068	157.075	0.498
607.999	358.662	80.004	20.009	100.262	18.977	171.179	0.467
615.999	362.675	80.005	20.009	100.203	18.887	185.195	0.471
623.999	366.554	80.005	20.009	100.171	18.951	175.707	0.510
631.999	370.562	80.004	20.009	100.340	19.029	163.595	0.547
639.999	374.627	80.005	20.009	100.514	19.081	155.403	0.527
647.999	378.522	80.004	20.009	100.478	19.130	147.845	0.517
655.999	382.529	80.004	20.008	100.464	19.201	136.722	0.501
663.999	386.519	80.004	20.009	100.474	19.297	121.868	0.506
671.999	390.568	80.003	20.009	100.596	19.412	103.958	0.526
679.999	394.668	80.005	20.009	100.515	19.522	86.707	0.470
687.999	398.768	80.005	20.009	100.548	19.637	68.866	0.469
695.999	402.766	80.006	20.008	100.578	19.740	52.783	0.506
703.999	406.658	80.005	20.009	100.559	19.827	39.092	0.505
711.999	410.614	80.006	20.008	100.553	19.895	28.462	0.496
719.999	414.516	80.006	20.008	100.505	19.945	20.766	0.506
727.999	418.492	80.006	20.009	100.500	19.986	14.325	0.462
735.999	422.477	80.006	20.009	100.430	20.000	12.155	0.511
743.999	426.377	80.005	20.009	100.389	20.021	8.887	0.462
752.000	430.247	80.006	20.009	100.382	20.025	8.293	0.455
760.000	434.197	80.007	20.009	100.343	20.036	6.464	0.469
768.000	438.105	80.006	20.009	100.323	20.040	5.938	0.575
775.999	442.087	80.004	20.009	100.323	20.044	5.296	0.506
783.999	446.071	80.006	20.009	100.306	20.045	5.131	0.496
791.999	450.082	80.005	20.009	100.331	20.044	5.252	0.472
799.999	454.131	80.006	20.009	100.300	20.043	5.351	0.465
808.000	458.070	80.006	20.009	100.350	20.048	4.610	0.481
815.999	462.035	80.004	20.009	100.333	20.048	4.703	0.520
823.999	466.054	80.005	20.009	100.337	20.049	4.534	0.503
832.000	470.065	80.005	20.009	100.360	20.055	3.630	0.476
839.999	473.983	80.007	20.012	100.364	20.047	4.797	0.497
848.000	477.963	80.005	20.009	100.326	20.048	4.714	0.509
855.999	481.885	80.005	20.009	100.319	20.044	5.203	0.501
863.999	485.967	80.005	20.009	100.339	20.045	5.179	0.515
872.000	490.001	80.005	20.009	100.305	20.045	5.156	0.493
879.999	494.013	80.005	20.010	100.316	20.044	5.315	0.492
887.999	498.024	80.005	20.007	100.346	20.041	5.690	0.503
895.999	502.011	80.005	20.009	100.305	20.042	5.559	0.495
903.999	505.954	80.006	20.009	100.339	20.044	5.191	0.481
912.000	509.999	80.006	20.009	100.323	20.042	5.556	0.484
919.999	513.953	80.006	20.012	100.280	20.042	5.650	0.482
927.999	517.953	80.006	20.009	100.344	20.042	5.645	0.494
936.000	521.816	80.007	20.010	100.292	20.040	5.964	0.490
943.999	525.708	80.006	20.009	100.311	20.038	6.270	0.460
951.999	529.751	80.005	20.009	100.337	20.043	5.438	0.502
960.000	533.710	80.006	20.008	100.307	20.040	5.942	0.496
967.999	537.696	80.005	20.009	100.313	20.037	6.384	0.539
975.999	541.713	80.005	20.009	100.331	20.040	5.843	0.517
983.999	545.609	80.007	20.008	100.341	20.035	6.629	0.507
991.999	549.734	80.005	20.009	100.326	20.036	6.495	0.564
999.999	553.674	80.006	20.009	100.318	20.036	6.547	0.524
1008.000	557.754	80.007	20.009	100.328	20.037	6.332	0.520
1015.999	561.779	80.006	20.008	100.338	20.039	6.010	0.514
1023.999	565.745	80.007	20.008	100.337	20.039	6.114	0.454
1032.000	569.810	80.007	20.010	100.319	20.037	6.397	0.492
1039.999	573.662	80.006	20.009	100.321	20.039	6.047	0.466
1048.000	577.478	80.005	20.009	100.317	20.035	6.674	0.498
1055.999	581.344	80.005	20.010	100.327	20.038	6.273	0.467
1064.000	585.156	80.005	20.009	100.331	20.035	6.684	0.480
1071.999	589.181	80.006	20.009	100.364	20.034	6.754	0.524
1079.999	593.256	80.006	20.009	100.342	20.032	7.138	0.491
1087.999	597.348	80.005	20.009	100.316	20.033	6.954	0.516
1096.000	601.341	80.006	20.009	100.366	20.041	5.740	0.468
1103.999	605.297	80.005	20.009	100.337	20.035	6.601	0.449
1111.999	609.359	80.006	20.009	100.339	20.036	6.535	0.523
1120.000	613.348	80.005	20.010	100.363	20.037	6.415	0.470
1128.000	617.357	80.007	20.009	100.332	20.034	6.810	0.501
1135.999	621.335	80.006	20.009	100.359	20.036	6.504	0.449
1144.000	625.376	80.004	20.009	100.366	20.034	6.901	0.537
1151.999	629.363	80.006	20.009	100.341	20.036	6.528	0.466
1159.999	633.436	80.004	20.009	100.318	20.032	7.163	0.464
1168.000	637.531	80.006	20.010	100.358	20.034	6.773	0.478
1175.999	641.535	80.004	20.010	100.331	20.035	6.723	0.504
1183.999	645.504	80.002	20.008	100.248	20.033	6.947	0.444
1191.999	649.543	80.006	20.009	100.377	20.034	6.850	0.467
1199.999	653.507	80.006	20.009	100.359	20.031	7.223	0.495
1207.999	657.441	80.005	20.010	100.320	20.029	7.670	0.508
1215.999	661.546	80.006	20.010	100.349	20.029	7.537	0.550
1223.999	665.597	80.005	20.009	100.359	20.033	7.010	0.517
1231.999	669.633	80.005	20.010	100.379	20.031	7.292	0.515
1239.999	673.668	80.005	20.010	100.368	20.035	6.655	0.564
1248.000	677.530	80.006	20.009	100.378	20.033	7.053	0.436
1255.999	681.592	80.006	20.009	100.364	20.029	7.617	0.534
1263.999	685.488	80.006	20.010	100.368	20.029	7.588	0.446
1271.999	689.681	80.007	20.010	100.364	20.030	7.455	0.512
1279.999	693.757	80.005	20.010	100.373	20.029	7.588	0.522
1287.999	697.832	80.005	20.010	100.358	20.026	8.088	0.465
1296.000	701.867	80.004	20.010	100.351	20.026	8.031	0.509
1303.999	705.849	80.004	20.010	100.379	20.035	6.676	0.466
1311.999	709.843	80.006	20.010	100.396	20.033	6.921	0.506
1320.000	713.854	80.005	20.010	100.416	20.033	7.034	0.521
1327.999	717.981	80.004	20.010	100.370	20.024	8.449	0.512
1336.000	721.984	80.006	20.010	100.377	20.024	8.466	0.451
1343.999	726.072	80.004	20.010	100.376	20.022	8.746	0.499
1352.000	730.235	80.006	20.010	100.395	20.022	8.710	0.569
1359.999	734.404	80.005	20.010	100.373	20.022	8.700	0.502
1367.999	738.618	80.006	20.010	100.374	20.020	9.012	0.511
1374.999	742.318	80.005	20.010	100.369	20.023	8.568	0.566