File: Experiments/TUBS/mcc/mcc_piece_2mg_dyn30_r3.txt
Sample Weight (mg):	1.96
Heating Rate (C/s):	0.5
Combustor Temp (C):	900
N2 Flow Rate (cc/min):	80
O2 Flow Rate (cc/min):	20
Time (s)	Temperature (C)	N2 flow rate (cc/min)	O2 flow rate (cc/min)	Flow Rate (cc/min)	Oxygen (%)	HRR (W/g)	Heating rate (C/s)
0.000	86.968	80.001	20.008	100.189	20.111	-0.081	-0.024
8.000	86.939	80.000	20.009	100.216	20.112	-0.334	-0.007
16.001	87.073	80.001	20.009	100.277	20.105	0.742	0.044
24.000	87.387	80.001	20.009	100.291	20.098	1.947	0.018
32.000	87.986	80.000	20.008	100.259	20.093	2.744	0.119
40.000	88.924	80.001	20.009	100.375	20.078	5.168	-0.021
48.000	90.116	80.001	20.009	100.477	20.059	8.173	0.215
56.000	92.018	80.001	20.009	100.477	20.057	8.441	0.288
64.000	94.294	80.000	20.009	100.445	20.058	8.323	0.323
72.000	96.897	80.002	20.009	100.457	20.053	9.063	0.344
80.000	99.942	80.001	20.009	100.477	20.049	9.721	0.385
88.001	103.278	80.000	20.009	100.465	20.051	9.398	0.419
96.001	106.917	80.001	20.008	100.469	20.051	9.388	0.463
104.000	110.880	80.000	20.009	100.485	20.050	9.575	0.515
112.006	115.085	80.000	20.009	100.498	20.051	9.374	0.564
120.001	119.452	80.001	20.009	100.485	20.051	9.483	0.572
128.001	124.023	80.000	20.010	100.460	20.057	8.527	0.593
136.007	128.609	80.001	20.009	100.475	20.063	7.580	0.574
144.007	133.318	80.001	20.009	100.398	20.061	7.873	0.558
152.003	138.062	80.001	20.009	100.418	20.066	7.077	0.623
160.000	142.707	80.001	20.009	100.418	20.063	7.475	0.548
168.000	147.480	80.001	20.009	100.390	20.067	6.907	0.575
176.000	152.180	80.001	20.009	100.385	20.070	6.387	0.597
184.000	156.818	80.000	20.009	100.357	20.070	6.422	0.564
192.000	161.434	80.000	20.008	100.359	20.070	6.391	0.584
200.000	165.944	80.001	20.008	100.359	20.076	5.386	0.531
208.000	170.343	80.002	20.009	100.336	20.072	6.008	0.581
216.000	174.729	80.000	20.009	100.338	20.073	5.987	0.566
224.000	179.018	80.001	20.009	100.316	20.071	6.311	0.541
232.000	183.210	80.000	20.008	100.343	20.073	5.875	0.512
240.000	187.403	80.001	20.009	100.330	20.065	7.130	0.502
248.000	191.524	80.000	20.009	100.324	20.065	7.232	0.528
256.000	195.571	80.000	20.009	100.328	20.066	7.110	0.547
264.000	199.608	79.999	20.009	100.329	20.064	7.424	0.509
272.000	203.664	79.999	20.009	100.317	20.066	7.092	0.516
280.000	207.694	80.001	20.009	100.332	20.064	7.381	0.539
288.000	211.710	79.999	20.009	100.303	20.063	7.547	0.487
296.000	215.745	80.001	20.009	100.317	20.064	7.297	0.508
304.000	219.764	79.999	20.009	100.300	20.061	7.841	0.444
312.000	223.842	80.000	20.009	100.306	20.063	7.567	0.505
320.000	227.849	80.000	20.008	100.300	20.066	6.957	0.435
328.000	231.890	80.001	20.009	100.301	20.064	7.310	0.515
336.000	235.955	80.000	20.008	100.295	20.061	7.760	0.518
344.000	239.873	80.001	20.008	100.318	20.065	7.129	0.471
352.000	243.965	80.000	20.008	100.300	20.063	7.557	0.518
360.000	248.056	80.001	20.009	100.317	20.066	7.048	0.534
368.000	252.059	80.000	20.009	100.299	20.066	7.035	0.504
376.000	256.115	80.002	20.009	100.309	20.061	7.785	0.493
384.000	260.130	80.001	20.008	100.336	20.067	6.923	0.465
392.001	264.134	80.000	20.009	100.280	20.063	7.502	0.515
400.000	268.205	80.000	20.009	100.304	20.059	8.103	0.505
408.000	272.304	80.000	20.008	100.322	20.056	8.613	0.505
416.000	276.383	80.000	20.008	100.275	20.051	9.376	0.523
424.000	280.389	79.999	20.008	100.279	20.045	10.432	0.505
432.000	284.478	80.000	20.009	100.270	20.038	11.419	0.471
440.000	288.493	80.000	20.008	100.279	20.034	12.104	0.515
448.000	292.496	79.999	20.008	100.302	20.027	13.240	0.497
456.000	296.521	80.000	20.008	100.283	20.019	14.530	0.503
464.000	300.476	80.001	20.008	100.293	20.015	15.169	0.488
472.000	304.443	80.001	20.008	100.280	20.009	16.086	0.474
480.000	308.442	80.001	20.008	100.304	20.004	16.970	0.495
488.000	312.438	80.000	20.008	100.293	19.995	18.326	0.467
496.000	316.439	80.000	20.008	100.272	19.974	21.761	0.477
504.000	320.461	80.001	20.008	100.275	19.943	26.595	0.512
512.001	324.437	80.000	20.008	100.294	19.888	35.516	0.504
520.000	328.445	80.001	20.007	100.297	19.829	44.934	0.505
528.000	332.437	80.000	20.008	100.296	19.741	58.994	0.473
536.000	336.405	80.002	20.007	100.295	19.646	74.061	0.511
544.000	340.442	80.000	20.007	100.334	19.516	94.844	0.506
552.000	344.430	80.001	20.007	100.301	19.385	115.847	0.487
560.000	348.415	80.001	20.008	100.338	19.249	137.445	0.486
568.000	352.435	80.000	20.007	100.302	19.117	158.592	0.513
576.000	356.351	80.002	20.008	100.373	18.989	179.062	0.483
584.000	360.302	80.001	20.008	100.336	18.900	193.341	0.489
592.000	364.232	80.002	20.007	100.359	18.809	207.746	0.495
600.000	368.184	80.001	20.008	100.367	18.728	220.943	0.516
608.001	372.106	80.002	20.008	100.363	18.716	222.614	0.494
616.000	376.164	80.002	20.008	100.330	18.796	209.906	0.512
624.000	380.247	80.001	20.007	100.419	18.975	181.323	0.547
632.000	384.239	80.002	20.008	100.430	19.132	156.278	0.500
640.000	388.351	80.001	20.008	100.394	19.275	133.289	0.511
648.000	392.416	80.001	20.008	100.392	19.414	111.079	0.505
656.000	396.460	79.999	20.012	100.307	19.546	90.137	0.487
664.000	400.478	80.000	20.007	100.405	19.679	68.766	0.509
672.000	404.381	80.000	20.007	100.345	19.794	50.475	0.443
680.000	408.319	80.001	20.007	100.344	19.883	36.204	0.473
688.000	412.214	80.002	20.007	100.320	19.957	24.444	0.477
696.000	415.991	80.001	20.008	100.312	20.006	16.636	0.470
704.000	419.872	80.001	20.007	100.315	20.041	11.055	0.456
712.000	423.806	80.001	20.007	100.282	20.056	8.550	0.414
720.001	427.801	80.002	20.008	100.275	20.072	6.047	0.467
728.000	431.835	80.001	20.008	100.275	20.079	4.877	0.518
736.000	435.819	80.002	20.007	100.249	20.086	3.845	0.492
744.000	439.821	80.002	20.007	100.255	20.088	3.535	0.480
752.000	443.868	80.001	20.007	100.263	20.095	2.472	0.507
760.000	447.843	80.001	20.007	100.255	20.092	2.809	0.504
768.000	451.812	80.001	20.007	100.246	20.094	2.597	0.512
776.000	455.739	80.002	20.007	100.238	20.092	2.826	0.514
784.000	459.759	80.000	20.007	100.265	20.091	3.079	0.458
792.000	463.717	80.000	20.008	100.256	20.091	2.991	0.490
800.000	467.701	80.001	20.008	100.261	20.093	2.667	0.506
808.000	471.585	80.002	20.008	100.257	20.095	2.374	0.516
816.000	475.402	80.001	20.007	100.266	20.095	2.445	0.515
824.000	479.276	80.001	20.008	100.268	20.096	2.283	0.501
832.000	483.177	80.002	20.007	100.259	20.093	2.728	0.487
840.000	487.152	80.000	20.007	100.273	20.094	2.563	0.492
848.000	491.116	80.003	20.007	100.254	20.093	2.698	0.501
856.000	495.034	80.002	20.008	100.253	20.091	3.001	0.450
864.000	499.013	80.001	20.008	100.238	20.091	3.052	0.484
872.001	502.963	80.000	20.008	100.243	20.088	3.437	0.479
880.000	506.896	80.000	20.007	100.260	20.093	2.678	0.488
888.000	510.868	80.002	20.008	100.258	20.091	3.109	0.507
896.000	514.875	80.000	20.007	100.264	20.093	2.681	0.481
904.000	518.899	80.001	20.007	100.268	20.092	2.876	0.547
912.000	522.940	80.001	20.008	100.249	20.092	2.822	0.491
920.000	526.919	80.002	20.008	100.234	20.094	2.549	0.495
928.000	530.896	80.002	20.008	100.231	20.095	2.407	0.499
936.000	534.809	80.002	20.008	100.236	20.095	2.415	0.471
944.000	538.733	80.001	20.007	100.257	20.095	2.435	0.475
952.000	542.591	80.001	20.007	100.247	20.094	2.512	0.496
960.000	546.523	80.001	20.007	100.244	20.094	2.540	0.475
968.000	550.467	80.001	20.007	100.253	20.091	3.045	0.470
976.000	554.396	80.000	20.008	100.222	20.097	2.101	0.531
984.000	558.268	80.001	20.007	100.260	20.098	1.949	0.482
992.000	562.332	80.002	20.007	100.239	20.093	2.667	0.496
1000.000	566.270	80.001	20.012	100.151	20.091	3.038	0.498
1008.000	570.287	80.002	20.008	100.257	20.090	3.190	0.532
1016.000	574.392	80.003	20.007	100.290	20.092	2.944	0.517
1024.000	578.436	80.002	20.007	100.241	20.089	3.338	0.521
1032.001	582.449	80.002	20.008	100.238	20.090	3.247	0.514
1040.001	586.515	80.002	20.007	100.243	20.088	3.461	0.522
1048.001	590.513	80.000	20.007	100.237	20.090	3.130	0.515
1056.000	594.468	80.002	20.007	100.261	20.094	2.579	0.500
1064.000	598.495	80.002	20.008	100.240	20.087	3.712	0.547
1072.001	602.412	80.001	20.008	100.228	20.089	3.372	0.469
1080.000	606.407	80.001	20.008	100.261	20.090	3.146	0.503
1088.000	610.404	80.001	20.007	100.276	20.088	3.574	0.490
1096.000	614.409	80.001	20.007	100.239	20.090	3.200	0.511
1104.000	618.450	80.001	20.008	100.226	20.089	3.325	0.527
1112.000	622.463	80.001	20.008	100.244	20.087	3.720	0.495
1120.000	626.457	80.000	20.007	100.262	20.086	3.787	0.495
1128.000	630.290	80.002	20.007	100.266	20.092	2.829	0.520
1136.000	634.105	80.002	20.008	100.242	20.088	3.453	0.481
1144.001	638.020	80.001	20.007	100.232	20.087	3.736	0.481
1152.000	642.056	80.001	20.008	100.228	20.087	3.706	0.515
1160.000	646.131	80.001	20.007	100.242	20.091	3.034	0.524
1168.000	650.239	80.001	20.008	100.234	20.085	3.958	0.534
1176.000	654.298	80.001	20.008	100.227	20.085	3.986	0.497
1184.001	658.284	80.001	20.007	100.244	20.086	3.875	0.477
1192.001	662.293	80.001	20.007	100.262	20.085	3.922	0.504
1200.001	666.211	80.000	20.007	100.251	20.087	3.747	0.501
1208.001	670.270	80.002	20.008	100.242	20.084	4.084	0.529
1216.000	674.335	80.002	20.008	100.231	20.086	3.898	0.518
1224.001	678.404	80.002	20.008	100.229	20.087	3.750	0.527
1232.000	682.455	80.000	20.007	100.217	20.088	3.578	0.501
1240.001	686.495	80.002	20.007	100.246	20.087	3.608	0.506
1248.001	690.483	80.003	20.007	100.256	20.085	4.050	0.490
1256.000	694.432	80.001	20.007	100.257	20.087	3.753	0.492
1264.000	698.442	80.001	20.008	100.259	20.089	3.359	0.489
1272.000	702.494	80.002	20.008	100.248	20.094	2.586	0.502
1280.000	706.477	80.001	20.008	100.237	20.089	3.291	0.533
1288.000	710.560	80.003	20.008	100.219	20.082	4.492	0.542
1296.001	714.626	80.001	20.007	100.243	20.083	4.286	0.506
1304.000	718.526	80.001	20.007	100.269	20.087	3.601	0.512
1312.001	722.400	79.999	20.007	100.249	20.085	3.919	0.478
1320.001	726.611	80.001	20.008	100.253	20.084	4.216	0.549
1328.000	730.712	80.001	20.009	100.259	20.086	3.851	0.490
1336.000	734.708	80.001	20.007	100.273	20.087	3.609	0.526
1344.001	738.844	80.001	20.008	100.255	20.086	3.848	0.501
1351.000	742.353	80.000	20.007	100.240	20.081	4.688	0.486