File: Experiments/TUBS/mcc/mcc_piece_1mg_dyn30_r2.txt
Sample Weight (mg):	1.02
Heating Rate (C/s):	0.5
Combustor Temp (C):	900
N2 Flow Rate (cc/min):	80
O2 Flow Rate (cc/min):	20
Time (s)	Temperature (C)	N2 flow rate (cc/min)	O2 flow rate (cc/min)	Flow Rate (cc/min)	Oxygen (%)	HRR (W/g)	Heating rate (C/s)
0.000	87.541	80.000	20.008	100.275	20.084	10.098	-0.055
8.000	87.128	80.001	20.008	100.302	20.086	9.748	-0.055
16.000	86.932	80.000	20.007	100.261	20.076	12.750	-0.023
24.000	87.074	80.001	20.008	100.269	20.073	13.721	0.044
32.000	87.407	80.001	20.008	100.275	20.071	14.202	0.036
40.001	88.001	80.001	20.007	100.317	20.065	16.036	0.114
48.000	88.799	80.002	20.008	100.334	20.057	18.676	0.139
56.000	89.948	80.001	20.008	100.357	20.046	21.953	0.181
64.001	91.323	79.999	20.008	100.460	20.036	24.879	0.188
72.000	93.274	80.001	20.008	100.501	20.029	27.120	0.265
80.001	95.587	80.002	20.007	100.491	20.028	27.496	0.241
88.000	98.150	80.000	20.008	100.521	20.024	28.552	0.302
96.001	101.342	79.999	20.008	100.544	20.017	30.918	0.317
104.000	104.822	79.999	20.007	100.470	20.020	29.968	0.413
112.000	108.611	80.001	20.008	100.582	20.021	29.582	0.521
120.000	112.793	80.001	20.007	100.573	20.020	29.865	0.529
128.000	117.207	80.001	20.008	100.540	20.018	30.412	0.562
136.001	121.854	80.000	20.008	100.524	20.026	28.120	0.609
144.000	126.559	80.001	20.008	100.491	20.025	28.471	0.568
152.000	131.426	80.002	20.007	100.487	20.025	28.210	0.591
160.000	136.284	80.001	20.008	100.456	20.027	27.615	0.593
168.001	141.056	80.001	20.008	100.421	20.030	26.867	0.626
176.000	145.912	80.000	20.008	100.423	20.032	26.257	0.618
184.000	150.669	80.002	20.008	100.418	20.036	24.985	0.600
192.000	155.138	80.003	20.008	100.416	20.036	25.118	0.366
200.000	160.079	80.001	20.008	100.412	20.034	25.629	0.580
208.000	164.611	80.001	20.007	100.399	20.036	24.913	0.576
216.000	169.050	80.000	20.008	100.347	20.038	24.243	0.514
224.000	173.490	79.999	20.008	100.360	20.037	24.567	0.545
232.000	177.843	79.999	20.008	100.365	20.042	23.049	0.532
240.000	181.976	79.999	20.007	100.331	20.044	22.591	0.507
248.000	186.173	80.001	20.008	100.373	20.039	24.073	0.502
256.000	190.352	80.002	20.009	100.330	20.043	22.867	0.535
264.000	194.331	80.001	20.007	100.332	20.041	23.440	0.445
272.000	198.377	80.001	20.007	100.347	20.045	22.218	0.475
280.000	202.320	80.002	20.008	100.326	20.039	24.109	0.477
288.000	206.415	80.001	20.008	100.330	20.037	24.691	0.515
296.001	210.269	80.000	20.008	100.322	20.040	23.824	0.461
304.000	214.260	80.001	20.007	100.348	20.039	24.031	0.498
312.000	218.233	80.001	20.007	100.349	20.039	24.021	0.451
320.000	222.297	80.000	20.008	100.328	20.037	24.599	0.517
328.000	226.351	80.000	20.007	100.325	20.038	24.445	0.521
336.000	230.362	80.001	20.007	100.338	20.035	25.152	0.489
344.000	234.457	80.002	20.008	100.343	20.039	23.973	0.513
352.000	238.437	80.000	20.007	100.332	20.041	23.467	0.474
360.000	242.709	80.000	20.007	100.320	20.040	23.683	0.563
368.000	246.844	80.000	20.008	100.330	20.038	24.371	0.529
376.000	250.853	80.001	20.008	100.316	20.037	24.634	0.462
384.001	254.907	80.001	20.009	100.303	20.038	24.429	0.521
392.000	259.017	80.001	20.008	100.306	20.037	24.624	0.539
400.000	263.103	80.000	20.008	100.296	20.038	24.228	0.532
408.000	267.190	80.000	20.008	100.280	20.034	25.430	0.486
416.000	271.302	80.002	20.008	100.286	20.033	25.769	0.522
424.000	275.279	80.000	20.008	100.288	20.037	24.732	0.475
432.000	279.314	80.001	20.007	100.287	20.029	26.956	0.486
440.000	283.387	80.001	20.007	100.295	20.029	26.962	0.532
448.000	287.391	80.001	20.008	100.276	20.025	28.245	0.502
456.000	291.425	80.001	20.008	100.272	20.020	29.905	0.510
464.000	295.425	80.001	20.008	100.292	20.019	30.300	0.498
472.000	299.422	80.001	20.008	100.295	20.013	31.911	0.470
480.000	303.524	80.001	20.008	100.281	20.014	31.751	0.535
488.000	307.433	80.001	20.008	100.257	20.008	33.388	0.474
496.000	311.507	80.001	20.006	100.291	20.001	35.514	0.482
504.000	315.485	80.000	20.008	100.254	19.993	38.012	0.510
512.000	319.349	80.001	20.008	100.268	19.983	41.310	0.458
520.000	323.398	80.001	20.008	100.245	19.962	47.787	0.523
528.000	327.348	80.002	20.007	100.236	19.937	55.314	0.512
536.000	331.404	80.001	20.008	100.238	19.900	66.702	0.510
544.000	335.361	79.999	20.009	100.280	19.840	84.961	0.446
552.000	339.332	80.001	20.008	100.273	19.752	112.096	0.458
560.000	343.362	80.000	20.007	100.287	19.682	133.571	0.464
568.000	347.364	80.001	20.008	100.296	19.594	160.467	0.479
576.000	351.414	80.001	20.008	100.286	19.511	186.106	0.472
584.000	355.403	80.000	20.008	100.303	19.461	201.379	0.503
592.000	359.442	79.999	20.008	100.307	19.427	211.878	0.515
600.000	363.547	80.000	20.008	100.299	19.402	219.565	0.518
608.001	367.502	80.001	20.008	100.303	19.386	224.291	0.497
616.000	371.464	80.001	20.009	100.303	19.387	224.009	0.480
624.000	375.394	80.000	20.009	100.288	19.422	213.232	0.439
632.000	379.400	80.000	20.008	100.324	19.489	192.716	0.485
640.000	383.466	80.001	20.008	100.272	19.577	165.887	0.497
648.000	387.514	80.001	20.008	100.306	19.639	146.683	0.485
656.000	391.534	80.002	20.008	100.294	19.698	128.682	0.494
664.000	395.496	80.000	20.008	100.277	19.764	108.465	0.482
672.000	399.530	80.001	20.008	100.253	19.830	88.065	0.502
680.000	403.446	80.001	20.008	100.254	19.891	69.376	0.431
688.000	407.351	80.002	20.008	100.233	19.944	53.199	0.510
696.000	411.264	80.000	20.007	100.232	19.987	39.910	0.450
704.000	415.234	80.000	20.008	100.224	20.018	30.313	0.471
712.000	419.285	80.001	20.008	100.230	20.035	25.314	0.566
720.000	423.240	80.000	20.008	100.216	20.046	21.898	0.522
728.000	427.116	80.001	20.008	100.248	20.052	19.913	0.470
736.000	431.070	80.001	20.008	100.260	20.061	17.317	0.498
744.000	434.905	80.000	20.008	100.259	20.062	17.051	0.461
752.000	438.893	80.002	20.008	100.240	20.064	16.216	0.493
760.000	442.815	80.000	20.008	100.230	20.062	16.942	0.477
768.000	446.785	80.001	20.008	100.221	20.065	15.897	0.444
776.000	450.739	80.001	20.008	100.216	20.066	15.787	0.499
784.000	454.738	80.001	20.008	100.203	20.066	15.614	0.491
792.000	458.734	80.001	20.008	100.214	20.067	15.510	0.514
800.000	462.759	80.001	20.008	100.231	20.068	15.024	0.493
808.000	466.660	80.000	20.008	100.225	20.067	15.267	0.516
816.000	470.706	80.001	20.009	100.234	20.066	15.659	0.511
824.000	474.611	80.000	20.008	100.222	20.070	14.569	0.451
832.000	478.584	80.001	20.008	100.241	20.069	14.777	0.520
840.000	482.509	80.001	20.008	100.234	20.071	14.314	0.484
848.000	486.427	80.001	20.008	100.211	20.068	15.239	0.482
856.000	490.427	80.000	20.008	100.225	20.071	14.153	0.501
864.000	494.395	80.000	20.008	100.231	20.071	14.304	0.482
872.000	498.400	79.999	20.008	100.237	20.067	15.420	0.463
880.000	502.478	80.001	20.007	100.190	20.068	15.108	0.511
888.000	506.446	80.002	20.007	100.232	20.068	15.030	0.484
896.000	510.446	80.000	20.007	100.223	20.070	14.466	0.529
904.000	514.384	80.001	20.008	100.210	20.067	15.333	0.520
912.000	518.397	80.002	20.008	100.237	20.068	15.039	0.512
920.000	522.270	80.002	20.008	100.215	20.074	13.334	0.478
928.000	526.017	80.002	20.008	100.270	20.079	11.667	0.449
936.001	529.922	80.001	20.008	100.276	20.078	11.960	0.505
944.000	533.773	80.000	20.008	100.249	20.081	11.255	0.508
952.000	537.670	80.002	20.008	100.273	20.082	10.677	0.507
960.000	541.585	80.001	20.008	100.264	20.077	12.317	0.479
968.000	545.523	80.001	20.008	100.228	20.067	15.360	0.483
976.000	549.575	80.001	20.008	100.113	20.062	16.836	0.527
984.000	553.623	80.000	20.009	100.256	20.061	17.229	0.508
992.000	557.823	80.001	20.010	100.215	20.070	14.519	0.525
1000.000	561.957	80.000	20.008	100.208	20.065	16.057	0.507
1008.000	566.107	80.002	20.008	100.186	20.068	15.054	0.515
1016.000	570.226	80.001	20.008	100.200	20.061	17.289	0.530
1024.000	574.273	80.001	20.009	100.225	20.062	16.805	0.485
1032.000	578.240	80.002	20.008	100.231	20.063	16.662	0.486
1040.000	582.219	80.000	20.008	100.238	20.061	17.266	0.514
1048.000	586.244	80.001	20.008	100.244	20.058	18.225	0.480
1056.000	590.290	80.001	20.008	100.223	20.056	18.817	0.506
1064.000	594.296	80.000	20.008	100.210	20.054	19.505	0.502
1072.001	598.348	80.001	20.007	100.208	20.054	19.557	0.534
1080.000	602.325	80.000	20.008	100.249	20.055	19.078	0.496
1088.000	606.340	80.000	20.008	100.202	20.055	19.227	0.512
1096.000	610.369	80.001	20.008	100.224	20.048	21.304	0.471
1104.000	614.346	80.003	20.010	100.285	20.051	20.263	0.505
1112.001	618.330	80.000	20.008	100.332	20.055	19.063	0.487
1120.001	622.334	80.000	20.008	100.216	20.050	20.724	0.478
1128.000	626.283	79.999	20.008	100.254	20.047	21.491	0.502
1136.001	630.255	80.001	20.008	100.239	20.052	19.930	0.471
1144.000	634.254	80.000	20.008	100.276	20.056	18.901	0.478
1152.000	638.134	80.000	20.008	100.282	20.055	18.989	0.498
1160.000	642.033	80.001	20.008	100.262	20.053	19.806	0.488
1168.001	645.999	80.001	20.007	100.275	20.056	18.871	0.477
1176.000	650.021	80.001	20.008	100.245	20.055	19.159	0.477
1184.000	654.065	80.001	20.008	100.232	20.052	20.070	0.505
1192.001	658.256	80.000	20.007	100.238	20.054	19.360	0.516
1200.001	662.333	80.000	20.008	100.260	20.049	21.010	0.560
1208.000	666.431	80.001	20.007	100.237	20.047	21.587	0.512
1216.000	670.466	80.000	20.008	100.254	20.049	20.815	0.493
1224.001	674.483	80.001	20.007	100.268	20.047	21.436	0.480
1232.001	678.411	80.000	20.007	100.246	20.050	20.541	0.485
1240.001	682.275	79.999	20.007	100.254	20.049	20.977	0.469
1248.000	686.303	80.002	20.007	100.258	20.050	20.621	0.487
1256.000	690.282	80.001	20.007	100.253	20.050	20.687	0.508
1264.000	694.270	80.000	20.007	100.243	20.049	21.068	0.473
1272.001	698.405	80.000	20.007	100.252	20.047	21.416	0.510
1280.000	702.489	80.001	20.008	100.262	20.047	21.704	0.503
1288.000	706.538	79.999	20.008	100.250	20.052	19.888	0.523
1296.001	710.682	79.999	20.008	100.240	20.045	22.164	0.487
1304.000	714.709	80.000	20.008	100.269	20.047	21.631	0.565
1312.001	718.605	79.999	20.008	100.247	20.046	21.769	0.510
1320.000	722.587	80.000	20.007	100.263	20.045	22.110	0.502
1328.000	726.671	80.001	20.007	100.286	20.046	21.758	0.533
1336.000	730.700	80.001	20.008	100.280	20.051	20.355	0.498
1344.000	734.740	80.000	20.008	100.283	20.049	20.798	0.517
1352.001	738.827	80.001	20.008	100.250	20.046	21.930	0.482
1359.000	742.393	80.000	20.008	100.253	20.044	22.337	0.500