File: Experiments/TUBS/mcc/mcc_powder_1mg_dyn30_r3.txt
Sample Weight (mg):	0.98
Heating Rate (C/s):	0.5
Combustor Temp (C):	900
N2 Flow Rate (cc/min):	80
O2 Flow Rate (cc/min):	20
Time (s)	Temperature (C)	N2 flow rate (cc/min)	O2 flow rate (cc/min)	Flow Rate (cc/min)	Oxygen (%)	HRR (W/g)	Heating rate (C/s)
0.000	88.370	80.005	20.009	100.181	19.995	0.041	0.060
7.999	88.711	80.004	20.008	100.189	19.996	-0.453	0.009
15.999	89.261	80.006	20.010	100.199	19.998	-0.940	0.106
23.999	89.499	80.005	20.009	100.243	19.985	3.036	0.108
31.999	90.408	80.006	20.010	100.259	19.980	4.645	0.145
39.999	91.076	80.006	20.009	100.265	19.982	4.065	0.099
47.999	92.059	80.008	20.010	100.259	19.980	4.672	0.058
55.999	93.185	80.006	20.009	100.248	19.983	3.755	0.183
63.999	94.314	80.004	20.009	100.244	19.975	6.335	0.112
71.999	95.718	80.005	20.009	100.335	19.965	9.645	0.224
79.999	97.301	80.008	20.010	100.289	19.969	8.283	0.218
87.999	99.214	80.005	20.009	100.383	19.960	11.224	0.270
95.999	101.465	80.005	20.010	100.424	19.955	12.780	0.279
103.999	104.101	80.005	20.009	100.452	19.944	16.137	0.343
111.999	106.981	80.006	20.009	100.478	19.939	17.816	0.399
119.999	110.226	80.005	20.009	100.488	19.939	17.730	0.348
127.999	113.836	80.005	20.008	100.512	19.944	16.417	0.408
136.000	117.891	80.007	20.009	100.506	19.946	15.613	0.693
144.000	122.130	80.005	20.009	100.488	19.945	15.999	0.590
152.000	126.524	80.004	20.008	100.458	19.948	15.061	0.451
160.000	130.992	80.005	20.009	100.437	19.945	15.948	0.602
168.000	135.716	80.005	20.009	100.430	19.952	13.790	0.574
176.000	140.494	80.006	20.009	100.424	19.950	14.220	0.685
184.000	145.147	80.006	20.009	100.415	19.959	11.563	0.497
192.000	149.843	80.008	20.010	100.394	19.956	12.396	0.677
200.000	154.310	80.004	20.009	100.403	19.954	12.942	0.532
208.000	158.861	80.006	20.010	100.389	19.950	14.227	0.569
216.000	163.215	80.006	20.009	100.375	19.953	13.413	0.497
224.000	167.574	80.007	20.009	100.366	19.939	17.832	0.656
232.000	171.915	80.006	20.010	100.331	19.937	18.594	0.531
240.000	175.871	80.005	20.009	100.342	19.936	18.751	0.610
248.000	179.817	80.005	20.009	100.320	19.933	19.925	0.510
256.000	183.838	80.005	20.009	100.337	19.945	15.992	0.502
264.000	187.765	80.006	20.009	100.349	19.951	13.884	0.543
272.000	191.865	80.006	20.009	100.354	19.961	10.965	0.479
280.000	195.771	80.006	20.009	100.347	19.971	7.736	0.514
288.000	199.728	80.004	20.009	100.364	19.969	8.232	0.456
296.000	203.948	80.005	20.009	100.359	19.967	8.941	0.527
304.000	207.898	80.005	20.008	100.349	19.965	9.394	0.374
312.000	211.981	80.006	20.009	100.364	19.970	7.899	0.482
320.000	216.152	80.006	20.009	100.353	19.961	10.959	0.663
328.000	220.469	80.006	20.009	100.365	19.967	8.846	0.611
336.000	224.508	80.005	20.009	100.355	19.973	6.882	0.489
344.000	228.877	80.005	20.009	100.326	19.969	8.270	0.539
352.000	233.212	80.006	20.009	100.316	19.974	6.807	0.542
360.000	237.364	80.006	20.009	100.321	19.970	8.023	0.509
368.000	241.534	80.006	20.009	100.312	19.975	6.321	0.569
376.000	245.572	80.006	20.010	100.307	19.981	4.343	0.461
384.000	249.756	80.006	20.009	100.311	19.978	5.330	0.503
392.000	253.920	80.005	20.010	100.328	19.981	4.323	0.405
400.000	257.791	80.006	20.009	100.331	19.984	3.417	0.417
408.000	261.830	80.005	20.009	100.314	19.978	5.271	0.550
416.000	265.745	80.006	20.009	100.318	19.978	5.345	0.603
424.000	269.677	80.007	20.009	100.295	19.969	8.418	0.504
432.000	273.615	80.005	20.008	100.329	19.967	8.825	0.526
440.000	277.408	80.005	20.009	100.336	19.958	11.853	0.479
448.000	281.543	80.006	20.009	100.312	19.953	13.311	0.495
456.000	285.406	80.005	20.009	100.336	19.952	13.705	0.556
464.000	289.295	80.005	20.009	100.309	19.936	18.802	0.512
472.000	293.227	80.005	20.008	100.295	19.934	19.562	0.424
480.000	297.127	80.005	20.009	100.336	19.931	20.292	0.300
488.000	301.152	80.005	20.009	100.314	19.935	19.099	0.470
496.000	304.915	80.006	20.009	100.297	19.923	23.036	0.466
504.000	308.660	80.004	20.010	100.287	19.923	22.930	0.418
512.000	312.610	80.006	20.008	100.294	19.907	28.066	0.410
520.000	316.529	80.007	20.010	100.295	19.896	31.417	0.498
528.000	320.225	80.005	20.009	100.304	19.870	40.025	0.541
536.000	324.083	80.004	20.009	100.303	19.837	50.532	0.364
544.000	328.139	80.006	20.009	100.281	19.796	63.443	0.472
552.000	332.032	80.004	20.009	100.297	19.757	76.000	0.601
560.000	336.040	80.004	20.009	100.275	19.709	91.251	0.545
568.000	340.193	80.004	20.009	100.273	19.660	106.797	0.471
576.000	344.321	80.006	20.009	100.277	19.604	124.940	0.585
584.000	348.346	80.005	20.012	100.141	19.547	142.877	0.573
592.000	352.294	80.005	20.011	100.293	19.514	153.575	0.384
600.000	356.291	80.005	20.009	100.371	19.469	167.857	0.546
608.000	360.442	80.006	20.008	100.351	19.430	180.349	0.520
616.000	364.356	80.005	20.008	100.307	19.399	190.348	0.500
624.000	368.322	80.006	20.008	100.250	19.402	189.452	0.431
632.000	372.451	80.005	20.009	100.328	19.423	182.843	0.566
640.000	376.354	80.008	20.013	100.370	19.446	175.510	0.493
648.000	380.386	80.005	20.009	100.395	19.496	159.452	0.519
656.004	384.333	80.006	20.008	100.412	19.550	142.143	0.460
664.011	388.367	80.006	20.010	100.402	19.616	121.107	0.448
672.013	392.352	80.006	20.009	100.441	19.683	99.805	0.525
680.003	396.377	80.006	20.009	100.463	19.749	78.750	0.575
688.000	400.290	80.005	20.009	100.440	19.799	62.601	0.476
696.000	404.179	80.005	20.008	100.446	19.844	48.128	0.509
704.000	408.151	80.004	20.009	100.422	19.879	36.967	0.524
712.000	412.000	80.006	20.008	100.408	19.909	27.401	0.450
720.000	415.971	80.004	20.009	100.376	19.928	21.494	0.508
728.000	419.918	80.006	20.009	100.380	19.942	17.051	0.500
736.000	423.769	80.005	20.009	100.375	19.946	15.720	0.501
744.000	427.765	80.006	20.009	100.364	19.957	12.247	0.550
752.000	431.684	80.006	20.009	100.332	19.953	13.237	0.436
760.000	435.610	80.005	20.009	100.339	19.960	11.153	0.475
768.000	439.541	80.003	20.009	100.338	19.959	11.360	0.435
776.000	443.526	80.005	20.009	100.353	19.959	11.507	0.505
784.000	447.517	80.004	20.009	100.354	19.960	11.099	0.538
792.000	451.504	80.006	20.009	100.339	19.958	11.754	0.593
800.000	455.459	80.006	20.009	100.327	19.956	12.527	0.495
808.001	459.511	80.005	20.009	100.326	19.955	12.784	0.512
816.000	463.483	80.007	20.009	100.329	19.956	12.507	0.510
824.000	467.620	80.007	20.009	100.338	19.951	13.894	0.515
832.000	471.587	80.006	20.008	100.321	19.950	14.322	0.478
840.000	475.485	80.007	20.008	100.324	19.952	13.795	0.489
848.000	479.529	80.006	20.009	100.332	19.946	15.676	0.494
856.000	483.523	80.006	20.009	100.338	19.950	14.199	0.534
864.000	487.552	80.004	20.010	100.329	19.947	15.315	0.510
872.000	491.518	80.005	20.009	100.330	19.950	14.387	0.482
880.000	495.368	80.004	20.009	100.342	19.948	15.099	0.505
888.000	499.288	80.005	20.010	100.325	19.951	14.156	0.495
896.000	503.111	80.006	20.010	100.321	19.945	15.961	0.487
904.000	507.023	80.005	20.010	100.316	19.945	15.987	0.487
912.000	510.981	80.004	20.010	100.321	19.943	16.524	0.481
920.000	514.838	80.003	20.010	100.329	19.942	17.014	0.496
928.000	518.662	80.005	20.010	100.345	19.941	17.096	0.433
936.000	522.679	80.004	20.009	100.352	19.938	18.253	0.491
944.000	526.749	80.004	20.010	100.328	19.932	20.123	0.529
952.000	530.776	80.005	20.010	100.326	19.936	18.881	0.505
960.000	534.740	80.005	20.010	100.339	19.934	19.563	0.506
968.000	538.812	80.004	20.010	100.356	19.930	20.860	0.520
976.000	542.821	80.006	20.010	100.364	19.932	20.045	0.483
984.000	546.851	80.005	20.009	100.340	19.928	21.421	0.481
992.000	550.931	80.004	20.010	100.354	19.927	21.545	0.495
1000.000	554.908	80.005	20.010	100.338	19.926	22.021	0.505
1008.001	558.855	80.004	20.010	100.334	19.927	21.770	0.476
1016.001	562.757	80.006	20.010	100.346	19.920	23.810	0.473
1024.000	566.702	80.006	20.009	100.333	19.919	24.307	0.489
1032.000	570.585	80.004	20.010	100.373	19.929	21.001	0.530
1040.000	574.548	80.004	20.010	100.360	19.929	21.051	0.505
1048.000	578.532	80.005	20.009	100.373	19.922	23.368	0.493
1056.000	582.696	80.004	20.010	100.352	19.919	24.289	0.530
1064.000	586.821	80.005	20.010	100.339	19.920	24.003	0.548
1072.000	590.984	80.005	20.010	100.368	19.922	23.152	0.548
1080.000	595.087	80.005	20.010	100.386	19.919	24.367	0.488
1088.000	599.120	80.004	20.011	100.364	19.913	26.135	0.471
1096.000	603.230	80.005	20.010	100.365	19.910	27.089	0.501
1104.000	607.289	80.005	20.010	100.373	19.912	26.564	0.500
1112.000	611.273	80.005	20.010	100.365	19.908	27.788	0.504
1120.000	615.154	80.005	20.010	100.333	19.901	30.110	0.508
1128.000	619.050	80.005	20.011	100.344	19.899	30.573	0.454
1136.000	623.032	80.004	20.011	100.332	19.898	30.974	0.528
1144.000	627.067	80.003	20.012	100.350	19.899	30.702	0.501
1152.000	631.075	80.005	20.010	100.400	19.897	31.143	0.509
1160.000	634.899	80.004	20.011	100.318	19.897	31.156	0.478
1168.000	638.728	80.004	20.010	100.333	19.894	32.163	0.471
1176.000	642.592	80.005	20.009	100.400	19.898	31.028	0.515
1184.000	646.471	80.005	20.009	100.373	19.898	31.009	0.508
1192.000	650.580	80.005	20.010	100.369	19.893	32.498	0.511
1200.000	654.702	80.005	20.010	100.382	19.889	33.931	0.498
1208.000	658.891	80.004	20.009	100.379	19.888	34.219	0.576
1216.000	662.929	80.003	20.010	100.376	19.890	33.561	0.452
1224.000	666.987	80.005	20.010	100.363	19.886	34.757	0.498
1232.000	670.964	80.005	20.011	100.335	19.881	36.437	0.496
1240.000	675.072	80.005	20.009	100.356	19.878	37.344	0.546
1248.000	679.144	80.005	20.010	100.370	19.873	39.085	0.486
1256.000	683.357	80.004	20.010	100.370	19.877	37.549	0.473
1264.000	687.288	80.005	20.011	100.377	19.879	37.035	0.467
1272.000	691.299	80.004	20.010	100.396	19.878	37.463	0.473
1280.000	695.203	80.004	20.010	100.346	19.871	39.595	0.469
1288.000	698.981	80.006	20.010	100.346	19.870	39.818	0.503
1296.000	702.684	80.004	20.010	100.362	19.868	40.541	0.500
1304.000	706.642	80.006	20.010	100.364	19.862	42.475	0.529
1312.000	710.694	80.005	20.010	100.367	19.861	42.854	0.479
1320.000	714.974	80.005	20.010	100.340	19.863	42.042	0.561
1328.000	719.253	80.004	20.010	100.364	19.865	41.540	0.525
1336.000	723.596	80.005	20.010	100.359	19.860	43.203	0.619
1344.000	727.918	80.005	20.010	100.373	19.857	44.032	0.536
1352.000	731.966	80.004	20.010	100.366	19.860	43.226	0.479
1360.000	735.906	80.004	20.009	100.352	19.856	44.488	0.478
1368.000	739.856	80.005	20.010	100.356	19.861	42.900	0.475
1373.500	742.531	80.004	20.010	100.394	19.856	44.254	0.495