File: Experiments/TUBS/mcc/mcc_powder_2mg_dyn30_r2.txt
Sample Weight (mg):	1.99
Heating Rate (C/s):	0.5
Combustor Temp (C):	900
N2 Flow Rate (cc/min):	80
O2 Flow Rate (cc/min):	20
Time (s)	Temperature (C)	N2 flow rate (cc/min)	O2 flow rate (cc/min)	Flow Rate (cc/min)	Oxygen (%)	HRR (W/g)	Heating rate (C/s)
0.000	88.918	80.004	20.009	100.175	20.063	-1.242	0.013
8.000	89.344	80.006	20.009	100.232	20.062	-0.955	0.065
16.000	89.932	80.005	20.009	100.239	20.054	0.307	0.030
24.000	90.553	80.005	20.010	100.262	20.046	1.547	0.089
32.001	91.374	80.003	20.010	100.343	20.032	3.692	0.109
40.000	92.483	80.004	20.009	100.401	20.021	5.426	0.150
48.001	94.038	80.004	20.009	100.449	20.014	6.627	0.214
56.000	96.005	80.005	20.009	100.448	20.011	7.020	0.269
64.000	98.359	80.005	20.009	100.472	20.013	6.750	0.327
72.000	100.966	80.006	20.009	100.504	20.009	7.352	0.321
80.001	103.978	80.006	20.009	100.497	20.001	8.656	0.359
88.000	107.248	80.005	20.009	100.518	20.001	8.660	0.389
96.001	110.843	80.006	20.009	100.534	19.998	9.096	0.446
104.000	114.721	80.005	20.009	100.522	19.991	10.130	0.507
112.000	118.832	80.005	20.009	100.496	19.994	9.687	0.451
120.001	123.044	80.005	20.009	100.520	19.991	10.153	0.518
128.000	127.624	80.006	20.010	100.490	19.986	10.935	0.571
136.000	132.084	80.005	20.009	100.460	19.989	10.468	0.532
144.000	136.679	80.005	20.009	100.437	19.989	10.540	0.547
152.001	141.350	80.006	20.009	100.480	19.989	10.480	0.552
160.000	146.013	80.005	20.009	100.438	19.984	11.231	0.583
168.000	150.520	80.005	20.009	100.402	19.979	12.120	0.575
176.000	155.023	80.005	20.009	100.419	19.968	13.817	0.547
184.000	159.559	80.005	20.009	100.405	19.956	15.616	0.588
192.000	164.016	80.004	20.009	100.349	19.942	17.901	0.548
200.000	168.452	80.005	20.009	100.380	19.933	19.301	0.534
208.000	172.815	80.004	20.009	100.376	19.935	19.048	0.591
216.000	177.059	80.004	20.009	100.356	19.942	17.909	0.520
224.000	181.354	80.005	20.010	100.377	19.949	16.769	0.494
232.000	185.515	80.004	20.010	100.402	19.974	12.871	0.494
240.000	189.683	80.006	20.010	100.391	19.981	11.727	0.498
248.000	193.744	80.006	20.009	100.370	19.990	10.259	0.493
256.000	197.909	80.005	20.009	100.350	19.994	9.736	0.512
264.000	201.920	80.004	20.014	100.435	20.000	8.751	0.524
272.000	205.979	80.005	20.009	100.416	20.007	7.638	0.476
280.000	209.894	80.005	20.009	100.401	20.011	7.014	0.493
288.000	213.870	80.004	20.011	100.347	20.005	7.984	0.485
296.000	217.908	80.005	20.010	100.320	20.008	7.562	0.545
304.000	221.858	80.004	20.010	100.321	20.008	7.535	0.484
312.000	225.869	80.005	20.009	100.374	20.006	7.853	0.546
320.000	229.837	80.005	20.009	100.367	20.008	7.544	0.503
328.000	233.766	80.005	20.009	100.316	20.011	7.011	0.490
336.000	237.816	80.004	20.009	100.332	20.010	7.136	0.484
344.000	241.967	80.004	20.009	100.355	20.007	7.599	0.529
352.000	246.069	80.005	20.009	100.351	20.010	7.229	0.520
360.000	250.105	80.003	20.009	100.330	20.006	7.833	0.453
368.000	254.167	80.005	20.009	100.523	20.005	7.921	0.490
376.000	258.098	80.006	20.010	100.297	20.004	8.138	0.492
384.000	262.101	80.004	20.009	100.353	19.996	9.403	0.474
392.000	266.133	80.005	20.009	100.326	19.988	10.655	0.536
400.000	270.001	80.005	20.009	100.348	19.976	12.593	0.471
408.000	274.008	80.005	20.009	100.331	19.964	14.347	0.520
416.000	277.979	80.007	20.009	100.339	19.950	16.564	0.505
424.000	282.020	80.005	20.009	100.334	19.943	17.687	0.486
432.001	286.038	80.006	20.009	100.342	19.936	18.870	0.502
440.000	290.062	80.005	20.009	100.336	19.928	20.094	0.493
448.000	294.128	80.005	20.009	100.355	19.923	20.926	0.543
456.000	298.195	80.005	20.010	100.362	19.916	21.995	0.517
464.000	302.223	80.006	20.009	100.340	19.906	23.541	0.550
472.000	306.081	80.006	20.009	100.328	19.885	26.863	0.517
480.000	310.108	80.005	20.009	100.330	19.857	31.307	0.484
488.000	314.081	80.005	20.009	100.323	19.819	37.149	0.534
496.000	318.150	80.005	20.009	100.306	19.762	46.143	0.540
504.000	322.172	80.005	20.009	100.277	19.697	56.341	0.482
512.000	326.244	80.005	20.009	100.296	19.621	68.380	0.480
520.000	330.266	80.006	20.009	100.249	19.535	81.779	0.495
528.000	334.280	80.005	20.009	100.251	19.451	95.044	0.508
536.000	338.332	80.005	20.009	100.224	19.362	109.083	0.502
544.000	342.424	80.006	20.009	100.200	19.280	121.890	0.451
552.000	346.439	80.004	20.009	100.241	19.214	132.372	0.513
560.001	350.509	80.006	20.009	100.252	19.151	142.250	0.484
568.000	354.408	80.005	20.009	100.274	19.079	153.612	0.510
576.000	358.353	80.003	20.009	100.330	18.995	166.646	0.461
584.000	362.201	80.005	20.010	100.321	18.899	181.819	0.471
592.000	366.190	80.006	20.009	100.190	18.956	173.244	0.477
600.000	370.131	80.006	20.009	100.391	19.027	162.130	0.463
608.000	374.045	80.006	20.009	100.514	19.075	154.464	0.503
616.000	378.037	80.004	20.010	100.467	19.123	146.820	0.541
624.000	382.061	80.005	20.009	100.476	19.200	134.830	0.526
632.000	385.995	80.006	20.009	100.515	19.294	120.131	0.508
640.000	390.058	80.005	20.009	100.533	19.402	103.165	0.509
648.000	394.096	80.005	20.009	100.587	19.519	84.643	0.504
656.000	398.080	80.005	20.009	100.631	19.624	68.150	0.495
664.000	402.170	80.007	20.009	100.506	19.714	53.803	0.526
672.000	406.051	80.005	20.009	100.556	19.797	40.788	0.513
680.000	410.032	80.005	20.008	100.555	19.868	29.489	0.475
688.000	414.080	80.006	20.009	100.506	19.917	21.877	0.477
696.000	418.068	80.005	20.009	100.492	19.950	16.572	0.512
704.000	422.054	80.006	20.009	100.452	19.979	12.062	0.541
712.000	425.959	80.006	20.009	100.456	19.996	9.371	0.513
720.000	429.906	80.005	20.009	100.443	20.006	7.769	0.524
728.000	433.858	80.007	20.010	100.442	20.016	6.272	0.487
736.000	437.777	80.005	20.009	100.393	20.021	5.362	0.512
744.000	441.731	80.008	20.009	100.350	20.020	5.547	0.496
752.000	445.623	80.006	20.009	100.343	20.020	5.550	0.465
760.000	449.531	80.005	20.009	100.354	20.024	4.916	0.531
768.000	453.340	80.005	20.009	100.345	20.023	5.056	0.447
776.000	457.340	80.005	20.009	100.331	20.020	5.610	0.531
784.000	461.250	80.007	20.009	100.347	20.023	5.122	0.514
792.000	465.133	80.006	20.009	100.337	20.024	4.999	0.498
800.000	469.096	80.006	20.009	100.267	20.019	5.803	0.506
808.000	473.065	80.004	20.012	100.157	20.023	5.095	0.480
816.000	477.053	80.005	20.009	100.310	20.018	5.895	0.552
824.000	480.997	80.005	20.009	100.314	20.015	6.411	0.505
832.000	484.943	80.006	20.008	100.332	20.011	6.960	0.498
840.000	488.910	80.007	20.009	100.328	20.017	6.029	0.502
848.000	492.836	80.005	20.009	100.313	20.017	6.118	0.507
856.000	496.902	80.007	20.009	100.318	20.018	5.982	0.520
864.000	500.861	80.006	20.009	100.356	20.018	5.940	0.485
872.000	504.728	80.005	20.008	100.361	20.018	5.933	0.477
880.000	508.737	80.005	20.009	100.351	20.016	6.281	0.534
888.000	512.763	80.005	20.009	100.345	20.015	6.422	0.509
896.000	516.861	80.007	20.009	100.338	20.014	6.493	0.516
904.000	520.902	80.007	20.009	100.355	20.016	6.242	0.527
912.000	524.925	80.006	20.009	100.338	20.012	6.785	0.535
920.000	528.891	80.006	20.009	100.321	20.009	7.338	0.514
928.000	532.866	80.006	20.009	100.339	20.009	7.338	0.502
936.000	536.929	80.006	20.009	100.327	20.012	6.807	0.491
944.000	540.920	80.005	20.009	100.346	20.013	6.715	0.427
952.000	544.914	80.006	20.009	100.363	20.021	5.382	0.496
960.000	548.760	80.005	20.009	100.376	20.019	5.729	0.503
968.000	552.756	80.006	20.009	100.332	20.013	6.708	0.496
976.000	556.710	80.005	20.009	100.341	20.013	6.624	0.495
984.000	560.710	80.005	20.009	100.324	20.011	6.992	0.460
992.000	564.772	80.006	20.009	100.346	20.008	7.535	0.535
1000.000	568.750	80.005	20.009	100.321	20.012	6.853	0.451
1008.000	572.611	80.005	20.009	100.344	20.011	7.088	0.481
1016.000	576.453	80.004	20.009	100.361	20.011	6.959	0.497
1024.000	580.265	80.005	20.009	100.372	20.016	6.224	0.480
1032.001	584.118	80.006	20.010	100.357	20.013	6.638	0.454
1040.000	588.075	80.005	20.009	100.348	20.011	6.950	0.452
1048.001	592.135	80.006	20.009	100.341	20.008	7.446	0.491
1056.001	596.241	80.007	20.009	100.341	20.007	7.662	0.473
1064.000	600.333	80.006	20.009	100.356	20.010	7.189	0.507
1072.000	604.340	80.006	20.009	100.350	20.011	6.939	0.475
1080.000	608.457	80.006	20.009	100.370	20.015	6.434	0.515
1088.000	612.584	80.006	20.009	100.357	20.008	7.524	0.535
1096.000	616.506	80.005	20.009	100.364	20.009	7.350	0.464
1104.001	620.570	80.006	20.008	100.372	20.006	7.747	0.505
1112.000	624.682	80.005	20.009	100.358	20.005	8.007	0.519
1120.001	628.694	80.005	20.010	100.356	20.005	7.976	0.419
1128.000	632.729	80.006	20.009	100.364	20.006	7.874	0.513
1136.000	636.818	80.005	20.009	100.390	20.008	7.541	0.506
1144.000	640.819	80.006	20.009	100.359	20.006	7.743	0.456
1152.001	644.926	80.007	20.009	100.369	20.010	7.185	0.521
1160.000	649.017	80.006	20.010	100.373	20.010	7.231	0.515
1168.000	653.016	80.004	20.009	100.404	20.016	6.274	0.506
1176.000	657.078	80.006	20.009	100.351	20.005	7.921	0.474
1184.000	661.156	80.004	20.008	100.346	20.003	8.303	0.480
1192.000	665.188	80.005	20.009	100.377	20.001	8.637	0.534
1200.000	669.210	80.006	20.009	100.353	20.005	8.000	0.508
1208.000	673.102	80.005	20.009	100.356	20.005	7.949	0.504
1216.000	677.190	80.007	20.009	100.377	20.001	8.641	0.531
1224.000	681.213	80.005	20.009	100.370	19.999	8.894	0.538
1232.000	685.186	80.004	20.010	100.373	20.001	8.576	0.502
1240.001	689.232	80.007	20.009	100.389	20.005	8.025	0.466
1248.000	693.236	80.005	20.008	100.409	19.998	9.129	0.538
1256.000	697.315	80.004	20.009	100.410	20.008	7.457	0.533
1264.000	701.293	80.006	20.009	100.408	20.003	8.268	0.504
1272.000	705.394	80.006	20.009	100.362	20.000	8.815	0.538
1280.000	709.493	80.006	20.009	100.374	19.995	9.513	0.505
1288.000	713.624	80.006	20.009	100.365	19.999	8.898	0.505
1296.001	717.746	80.006	20.009	100.403	19.999	8.884	0.518
1304.000	721.807	80.005	20.009	100.443	20.003	8.259	0.458
1312.000	725.705	80.006	20.009	100.384	20.000	8.750	0.453
1320.000	729.687	80.006	20.009	100.375	19.993	9.886	0.534
1328.000	733.679	80.006	20.009	100.400	19.989	10.412	0.466
1336.001	737.758	80.005	20.009	100.395	20.001	8.614	0.516
1344.000	741.620	80.005	20.009	100.407	19.998	9.087	0.343
1345.500	742.443	80.005	20.009	100.395	19.996	9.377	0.453