File: Experiments/TUBS/mcc/mcc_piece_1mg_dyn30_r3.txt
Sample Weight (mg):	1.01
Heating Rate (C/s):	0.5
Combustor Temp (C):	900
N2 Flow Rate (cc/min):	80
O2 Flow Rate (cc/min):	20
Time (s)	Temperature (C)	N2 flow rate (cc/min)	O2 flow rate (cc/min)	Flow Rate (cc/min)	Oxygen (%)	HRR (W/g)	Heating rate (C/s)
0.000	90.472	79.998	20.008	99.709	20.134	-4.326	-0.071
7.999	89.743	80.002	20.009	99.974	20.091	9.165	-0.097
15.999	88.994	80.000	20.009	100.251	20.058	19.218	-0.100
23.999	88.628	80.001	20.009	100.272	20.038	25.550	-0.022
32.000	88.664	79.999	20.007	100.408	20.012	33.455	0.018
39.999	89.309	80.000	20.009	100.472	20.001	37.047	0.140
48.000	90.578	80.001	20.009	100.498	19.995	38.816	0.211
55.999	92.363	80.001	20.009	100.483	19.998	37.898	0.233
64.000	94.509	80.000	20.010	100.469	19.997	38.366	0.261
71.999	97.034	80.000	20.009	100.501	19.995	38.993	0.386
80.000	100.080	80.000	20.009	100.503	19.994	39.327	0.391
87.999	103.444	80.000	20.009	100.504	19.993	39.576	0.470
95.999	107.143	80.002	20.009	100.492	19.990	40.477	0.469
104.000	111.168	80.002	20.009	100.482	19.988	41.097	0.510
112.000	115.502	79.999	20.008	100.513	19.994	39.092	0.518
119.999	119.865	80.001	20.009	100.514	19.998	37.970	0.775
128.000	124.602	80.001	20.009	100.472	20.000	37.407	0.623
136.000	129.103	80.001	20.008	100.463	20.002	36.609	0.505
144.000	133.969	80.001	20.009	100.467	20.010	34.150	0.574
152.000	138.585	80.001	20.009	100.365	20.014	33.069	0.558
160.000	143.176	80.000	20.008	100.383	20.013	33.386	0.597
168.000	147.655	80.000	20.009	100.371	20.013	33.150	0.559
176.000	151.987	80.001	20.008	100.360	20.013	33.368	0.563
184.000	156.340	80.000	20.008	100.393	20.021	30.876	0.510
192.000	160.526	80.000	20.009	100.377	20.022	30.312	0.497
200.000	164.674	80.001	20.008	100.357	20.015	32.539	0.548
208.000	168.824	79.999	20.008	100.359	20.015	32.466	0.537
216.000	172.776	80.002	20.009	100.356	20.013	33.183	0.501
224.000	176.893	80.001	20.008	100.340	20.013	33.179	0.491
232.000	180.930	80.000	20.009	100.367	20.012	33.685	0.511
240.000	184.870	80.000	20.009	100.358	20.014	32.992	0.481
248.000	188.851	79.999	20.008	100.345	20.013	33.161	0.480
256.000	192.858	80.001	20.008	100.359	20.016	32.321	0.476
264.000	196.909	79.999	20.008	100.345	20.013	33.094	0.509
272.000	201.008	80.000	20.008	100.357	20.014	33.012	0.561
280.000	205.067	80.000	20.008	100.354	20.012	33.578	0.493
288.000	209.154	80.000	20.009	100.335	20.010	34.187	0.507
296.000	213.273	80.000	20.009	100.303	20.010	34.315	0.541
304.000	217.434	80.000	20.009	100.328	20.009	34.604	0.548
312.000	221.587	80.000	20.009	100.319	20.013	33.184	0.542
320.000	225.672	79.999	20.009	100.317	20.007	34.951	0.505
328.000	229.806	80.001	20.008	100.322	20.009	34.383	0.528
336.000	233.883	80.000	20.008	100.322	20.008	34.724	0.533
344.000	237.966	80.001	20.008	100.306	20.008	34.770	0.503
352.000	242.094	80.001	20.008	100.300	20.012	33.684	0.506
360.000	246.197	80.001	20.008	100.323	20.010	34.120	0.509
368.000	250.224	80.002	20.009	100.306	20.011	33.764	0.471
376.000	254.275	80.000	20.009	100.315	20.012	33.578	0.516
384.000	258.297	80.001	20.009	100.306	20.008	34.637	0.495
392.000	262.343	80.001	20.008	100.317	20.008	34.618	0.504
400.000	266.399	80.000	20.009	100.313	20.010	34.204	0.534
408.000	270.480	79.999	20.009	100.315	20.011	33.694	0.544
416.000	274.502	79.999	20.009	100.302	20.003	36.237	0.509
424.000	278.563	80.000	20.008	100.302	20.000	37.333	0.476
432.000	282.522	80.000	20.009	100.307	19.999	37.527	0.509
440.000	286.552	80.000	20.009	100.304	19.997	38.165	0.490
448.000	290.586	80.000	20.009	100.298	19.993	39.550	0.522
456.000	294.560	79.999	20.008	100.299	19.992	39.579	0.508
464.000	298.615	80.000	20.008	100.297	19.991	40.031	0.519
472.000	302.652	80.002	20.009	100.292	19.986	41.518	0.495
480.000	306.619	80.000	20.009	100.298	19.983	42.653	0.467
488.000	310.612	80.000	20.008	100.303	19.977	44.336	0.476
496.000	314.627	80.001	20.008	100.299	19.963	48.575	0.511
504.000	318.705	79.999	20.009	100.297	19.941	55.434	0.499
512.000	322.687	80.001	20.009	100.272	19.919	62.479	0.537
520.000	326.658	80.000	20.009	100.286	19.886	72.691	0.532
528.000	330.630	80.000	20.008	100.314	19.845	85.385	0.465
536.000	334.576	80.001	20.009	100.330	19.798	99.840	0.510
544.000	338.515	80.000	20.009	100.327	19.736	118.964	0.471
552.000	342.547	80.000	20.009	100.338	19.683	135.543	0.459
560.000	346.536	80.000	20.008	100.321	19.620	155.122	0.467
568.000	350.562	80.001	20.007	100.306	19.537	180.798	0.491
576.000	354.540	80.001	20.008	100.314	19.466	202.879	0.523
584.000	358.513	80.001	20.008	100.350	19.413	219.194	0.465
592.000	362.512	80.000	20.008	100.346	19.379	229.710	0.498
600.000	366.481	80.001	20.007	100.342	19.351	238.445	0.506
608.000	370.511	79.999	20.007	100.335	19.361	235.391	0.496
616.000	374.480	80.000	20.007	100.334	19.376	230.671	0.467
624.000	378.404	79.999	20.007	100.298	19.458	205.347	0.474
632.000	382.464	80.000	20.008	100.317	19.562	172.837	0.522
640.000	386.520	80.000	20.008	100.314	19.632	151.422	0.503
648.000	390.536	80.001	20.008	100.279	19.695	131.763	0.487
656.000	394.544	80.000	20.008	100.296	19.751	114.484	0.480
664.000	398.585	80.000	20.008	100.287	19.822	92.338	0.510
672.000	402.573	80.001	20.008	100.316	19.886	72.540	0.479
680.000	406.598	80.000	20.009	100.304	19.935	57.246	0.504
688.000	410.592	80.001	20.009	100.284	19.970	46.439	0.484
696.000	414.488	80.001	20.009	100.297	19.997	38.187	0.464
704.000	418.490	80.000	20.008	100.283	20.015	32.728	0.514
712.000	422.450	80.000	20.008	100.271	20.022	30.526	0.491
720.000	426.472	80.001	20.008	100.298	20.029	28.225	0.505
728.000	430.493	80.000	20.008	100.283	20.036	26.070	0.476
736.000	434.496	80.000	20.009	100.261	20.036	25.955	0.517
744.000	438.490	80.001	20.009	100.272	20.039	25.186	0.514
752.000	442.409	80.001	20.008	100.263	20.042	24.296	0.437
760.000	446.319	80.001	20.009	100.263	20.039	25.017	0.542
768.000	450.238	80.000	20.009	100.253	20.041	24.515	0.494
776.000	454.126	80.000	20.009	100.282	20.039	25.064	0.478
784.000	458.135	79.999	20.009	100.264	20.041	24.415	0.498
792.000	462.097	79.999	20.008	100.261	20.045	23.231	0.460
800.000	466.096	80.001	20.009	100.292	20.047	22.741	0.463
808.000	470.171	80.001	20.009	100.284	20.044	23.645	0.470
816.000	474.176	79.999	20.009	100.261	20.048	22.460	0.535
824.000	478.135	80.000	20.009	100.254	20.045	23.285	0.485
832.000	482.081	79.999	20.009	100.252	20.042	24.086	0.481
840.000	486.042	80.000	20.009	100.253	20.043	23.837	0.492
848.000	489.866	80.000	20.009	100.270	20.039	25.021	0.474
856.000	493.777	79.999	20.009	100.252	20.041	24.663	0.466
864.000	497.729	80.000	20.009	100.263	20.042	24.136	0.495
872.000	501.725	80.000	20.009	100.258	20.042	24.167	0.497
880.000	505.745	80.002	20.008	100.247	20.047	22.623	0.524
888.000	509.720	80.000	20.009	100.252	20.047	22.606	0.543
896.000	513.666	80.001	20.010	100.220	20.044	23.640	0.517
904.000	517.692	80.001	20.008	100.253	20.039	25.317	0.508
912.000	521.691	80.000	20.008	100.243	20.046	22.882	0.497
920.000	525.629	80.001	20.009	100.263	20.041	24.541	0.444
928.000	529.683	80.002	20.007	100.264	20.039	25.029	0.512
936.000	533.574	79.999	20.009	100.252	20.039	25.130	0.437
944.000	537.447	80.001	20.008	100.283	20.043	23.940	0.460
952.000	541.358	80.000	20.009	100.257	20.040	24.975	0.478
960.000	545.275	79.999	20.008	100.296	20.045	23.403	0.507
968.000	549.241	79.999	20.009	100.283	20.041	24.487	0.527
976.000	553.209	80.000	20.009	100.300	20.044	23.459	0.518
984.000	557.210	79.999	20.009	100.253	20.039	25.091	0.493
992.000	561.278	80.000	20.009	100.274	20.042	24.155	0.500
1000.000	565.332	80.000	20.008	100.276	20.038	25.489	0.525
1008.000	569.392	80.000	20.009	100.250	20.032	27.175	0.538
1016.000	573.355	79.999	20.008	100.244	20.029	28.319	0.458
1024.000	577.435	80.000	20.009	100.234	20.029	28.251	0.505
1031.999	581.546	80.000	20.009	100.234	20.026	29.241	0.569
1040.000	585.653	80.000	20.009	100.248	20.029	28.222	0.493
1047.999	589.584	79.999	20.008	100.248	20.028	28.651	0.441
1055.999	593.578	80.000	20.009	100.261	20.031	27.598	0.477
1063.999	597.523	80.000	20.009	100.274	20.033	26.986	0.468
1071.999	601.532	80.001	20.009	100.258	20.027	28.983	0.516
1079.999	605.532	80.002	20.009	100.266	20.026	29.230	0.446
1088.000	609.418	80.001	20.008	100.253	20.023	29.963	0.484
1096.001	613.294	80.000	20.008	100.252	20.027	28.927	0.483
1103.999	617.280	79.999	20.009	100.262	20.026	29.305	0.512
1111.999	621.329	80.000	20.009	100.249	20.025	29.557	0.470
1119.999	625.355	80.000	20.009	100.268	20.025	29.372	0.513
1127.999	629.336	80.001	20.008	100.284	20.029	28.398	0.471
1135.999	633.343	80.000	20.008	100.244	20.030	28.078	0.502
1144.000	637.432	79.999	20.008	100.246	20.027	28.757	0.574
1151.999	641.445	79.999	20.008	100.249	20.029	28.202	0.519
1160.000	645.485	80.001	20.008	100.254	20.028	28.568	0.498
1168.000	649.586	79.999	20.008	100.236	20.031	27.781	0.508
1176.000	653.584	80.000	20.009	100.260	20.029	28.202	0.505
1183.999	657.643	79.999	20.009	100.266	20.033	26.953	0.568
1192.000	661.551	79.999	20.008	100.271	20.029	28.317	0.475
1199.999	665.504	80.001	20.008	100.255	20.030	27.851	0.520
1208.000	669.524	80.000	20.009	100.241	20.031	27.606	0.512
1215.999	673.497	80.000	20.009	100.235	20.028	28.490	0.522
1223.999	677.570	79.999	20.008	100.269	20.031	27.486	0.513
1231.999	681.536	80.000	20.009	100.239	20.032	27.242	0.481
1239.999	685.531	80.000	20.009	100.269	20.031	27.679	0.478
1247.999	689.552	80.001	20.008	100.264	20.028	28.419	0.504
1255.999	693.717	80.000	20.008	100.280	20.027	28.758	0.515
1263.999	697.595	79.998	20.008	100.242	20.029	28.191	0.471
1271.999	701.503	79.999	20.008	100.236	20.027	28.957	0.470
1280.000	705.479	80.000	20.008	100.235	20.025	29.470	0.516
1287.999	709.461	80.000	20.008	100.247	20.027	28.953	0.527
1296.000	713.515	80.000	20.009	100.253	20.024	29.768	0.527
1303.999	717.664	80.000	20.008	100.256	20.021	30.779	0.548
1311.999	721.701	80.001	20.008	100.243	20.025	29.408	0.497
1319.999	725.865	80.000	20.008	100.259	20.025	29.601	0.505
1327.999	729.984	80.000	20.008	100.247	20.023	29.957	0.447
1335.999	734.154	79.999	20.009	100.248	20.022	30.509	0.500
1343.999	738.432	80.000	20.008	100.279	20.023	29.998	0.517
1351.499	742.355	80.001	20.008	100.251	20.025	29.390	0.541