File: Experiments/TUBS/mcc/mcc_piece_2mg_dyn30_r2.txt
Sample Weight (mg):	1.98
Heating Rate (C/s):	0.5
Combustor Temp (C):	900
N2 Flow Rate (cc/min):	80
O2 Flow Rate (cc/min):	20
Time (s)	Temperature (C)	N2 flow rate (cc/min)	O2 flow rate (cc/min)	Flow Rate (cc/min)	Oxygen (%)	HRR (W/g)	Heating rate (C/s)
0.000	88.052	80.000	20.008	100.152	20.127	12.137	-0.081
8.000	87.472	80.000	20.008	100.244	20.134	10.982	-0.036
16.000	87.117	80.002	20.007	100.224	20.129	11.685	-0.009
24.000	86.966	80.000	20.007	100.251	20.120	13.200	-0.055
32.000	87.115	79.999	20.007	100.281	20.116	13.873	0.033
40.000	87.533	80.000	20.008	100.213	20.116	13.772	0.046
48.000	88.296	80.000	20.007	100.288	20.107	15.208	0.088
56.000	89.218	80.000	20.007	100.362	20.098	16.706	0.153
64.000	90.577	79.999	20.007	100.387	20.090	17.931	0.342
72.000	92.445	79.999	20.008	100.408	20.087	18.508	0.250
80.000	94.798	80.001	20.008	100.444	20.080	19.470	0.295
88.000	97.428	80.001	20.007	100.445	20.077	20.052	0.360
96.001	100.395	80.000	20.008	100.428	20.076	20.233	0.371
104.000	103.769	80.000	20.008	100.401	20.080	19.507	0.479
112.000	107.252	80.000	20.007	100.439	20.080	19.565	0.439
120.001	111.081	80.000	20.007	100.471	20.081	19.345	0.488
128.000	115.068	80.001	20.008	100.452	20.080	19.559	0.514
136.000	119.225	80.001	20.008	100.448	20.080	19.609	0.523
144.000	123.535	80.001	20.007	100.439	20.081	19.387	0.548
152.000	127.973	80.000	20.007	100.420	20.087	18.398	0.553
160.000	132.482	80.000	20.007	100.412	20.089	18.091	0.586
168.000	137.141	80.001	20.008	100.380	20.090	18.019	0.622
176.000	141.674	80.001	20.008	100.357	20.089	18.050	0.540
184.000	146.362	79.999	20.008	100.361	20.092	17.614	0.655
192.000	150.807	80.000	20.008	100.360	20.094	17.236	0.574
200.000	155.324	80.001	20.007	100.359	20.095	17.099	0.507
208.000	159.740	80.000	20.007	100.318	20.096	16.934	0.514
216.000	164.144	80.000	20.007	100.348	20.096	17.020	0.544
224.000	168.532	80.002	20.008	100.341	20.095	17.082	0.561
232.000	172.744	80.001	20.007	100.329	20.091	17.718	0.502
240.000	176.963	79.999	20.007	100.320	20.093	17.417	0.549
248.000	181.020	80.001	20.007	100.317	20.091	17.814	0.505
256.000	185.191	80.001	20.007	100.297	20.092	17.617	0.492
264.000	189.236	80.000	20.007	100.283	20.089	18.165	0.498
272.001	193.310	80.000	20.008	100.277	20.088	18.234	0.498
280.000	197.386	80.001	20.007	100.292	20.087	18.324	0.519
288.000	201.378	80.002	20.007	100.280	20.091	17.829	0.507
296.000	205.413	80.002	20.007	100.269	20.090	17.964	0.526
304.000	209.418	79.999	20.007	100.290	20.092	17.640	0.553
312.000	213.399	80.001	20.007	100.290	20.090	18.003	0.464
320.000	217.467	80.001	20.007	100.288	20.088	18.316	0.515
328.000	221.523	80.000	20.007	100.282	20.088	18.259	0.537
336.000	225.584	80.001	20.008	100.277	20.090	17.867	0.495
344.000	229.596	80.001	20.008	100.273	20.088	18.210	0.463
352.000	233.693	80.001	20.008	100.272	20.087	18.362	0.508
360.000	237.746	80.002	20.008	100.270	20.091	17.847	0.508
368.000	241.829	79.999	20.008	100.264	20.092	17.601	0.498
376.000	246.009	80.001	20.007	100.259	20.087	18.439	0.524
384.000	250.120	80.000	20.007	100.274	20.090	17.973	0.549
392.000	254.079	80.001	20.007	100.267	20.086	18.593	0.546
400.000	258.193	80.000	20.007	100.408	20.087	18.475	0.518
408.001	262.193	80.002	20.009	100.279	20.089	18.121	0.436
416.000	266.176	80.001	20.007	100.280	20.082	19.121	0.479
424.000	270.204	80.001	20.007	100.264	20.071	21.000	0.484
432.000	274.210	80.001	20.008	100.244	20.070	21.031	0.482
440.001	278.204	80.001	20.007	100.250	20.063	22.147	0.491
448.000	282.209	80.001	20.007	100.217	20.056	23.261	0.537
456.000	286.223	80.001	20.007	100.245	20.051	24.040	0.509
464.000	290.237	80.002	20.007	100.283	20.049	24.329	0.550
472.000	294.241	80.001	20.008	100.265	20.042	25.438	0.460
480.000	298.319	79.999	20.008	100.241	20.037	26.278	0.486
488.000	302.372	80.002	20.008	100.270	20.031	27.213	0.540
496.001	306.401	80.000	20.007	100.267	20.022	28.725	0.571
504.000	310.312	79.999	20.008	100.259	20.012	30.246	0.497
512.000	314.341	80.000	20.007	100.262	19.992	33.475	0.490
520.000	318.398	80.000	20.008	100.251	19.962	38.130	0.511
528.000	322.380	80.002	20.008	100.278	19.897	48.453	0.491
536.001	326.390	80.002	20.008	100.211	19.839	57.628	0.525
544.000	330.389	80.001	20.007	100.275	19.724	75.834	0.489
552.001	334.389	80.001	20.008	100.209	19.602	95.005	0.491
560.000	338.414	80.000	20.007	100.247	19.472	115.545	0.500
568.000	342.416	80.001	20.007	100.232	19.366	132.198	0.478
576.000	346.308	80.002	20.008	100.293	19.233	153.313	0.480
584.000	350.349	80.001	20.007	100.274	19.130	169.654	0.557
592.000	354.324	80.001	20.008	100.256	19.043	183.380	0.484
600.000	358.311	80.001	20.007	100.336	18.974	194.395	0.516
608.000	362.205	80.001	20.008	100.290	18.928	201.581	0.552
616.000	366.207	80.001	20.008	100.333	18.886	208.328	0.520
624.000	370.223	80.002	20.007	100.280	18.852	213.550	0.506
632.000	374.097	80.002	20.007	100.326	18.830	217.086	0.460
640.000	378.043	80.002	20.009	100.286	18.969	195.257	0.517
648.000	382.063	79.998	20.008	100.351	19.164	164.325	0.487
656.000	386.204	80.001	20.007	100.427	19.308	141.551	0.539
664.000	390.314	79.999	20.007	100.342	19.424	123.276	0.528
672.000	394.352	80.001	20.007	100.339	19.530	106.490	0.486
680.000	398.381	80.001	20.007	100.296	19.645	88.345	0.480
688.000	402.432	80.001	20.007	100.288	19.769	68.607	0.499
696.000	406.364	80.000	20.007	100.301	19.874	52.095	0.520
704.000	410.451	80.001	20.008	100.283	19.956	39.025	0.500
712.000	414.496	80.000	20.007	100.276	20.014	29.983	0.476
720.000	418.467	79.999	20.007	100.255	20.052	23.998	0.496
728.000	422.452	80.000	20.008	100.239	20.080	19.541	0.509
736.000	426.324	80.001	20.008	100.229	20.097	16.835	0.504
744.000	430.237	80.002	20.008	100.224	20.107	15.271	0.472
752.000	434.082	80.002	20.008	100.248	20.120	13.252	0.505
760.001	437.967	80.002	20.007	100.242	20.118	13.479	0.498
768.000	441.826	80.001	20.007	100.250	20.127	12.024	0.455
776.000	445.750	80.000	20.007	100.276	20.131	11.487	0.541
784.000	449.627	80.002	20.007	100.230	20.126	12.272	0.505
792.001	453.512	80.001	20.008	100.233	20.127	12.113	0.493
800.000	457.482	80.001	20.007	100.259	20.126	12.204	0.503
808.000	461.504	80.001	20.008	100.224	20.129	11.726	0.497
816.000	465.425	80.001	20.007	100.222	20.125	12.334	0.428
824.000	469.530	80.001	20.008	100.212	20.123	12.728	0.497
832.000	473.490	80.000	20.008	100.242	20.127	12.147	0.454
840.000	477.504	80.000	20.007	100.241	20.135	10.867	0.490
848.000	481.271	80.000	20.008	100.269	20.130	11.639	0.500
856.000	485.225	80.001	20.007	100.232	20.124	12.499	0.481
864.000	489.229	80.001	20.007	100.203	20.122	12.878	0.528
872.000	493.094	80.001	20.009	100.183	20.126	12.182	0.456
880.000	497.048	80.000	20.008	100.222	20.126	12.294	0.484
888.000	501.081	80.002	20.008	100.199	20.119	13.406	0.491
896.000	505.043	80.002	20.008	100.224	20.118	13.457	0.499
904.000	508.819	80.001	20.008	100.201	20.120	13.116	0.471
912.000	512.724	80.002	20.008	100.226	20.119	13.405	0.465
920.000	516.715	80.001	20.007	100.249	20.124	12.591	0.516
928.000	520.705	80.002	20.008	100.221	20.119	13.307	0.506
936.000	524.679	80.001	20.007	100.252	20.121	12.996	0.470
944.000	528.649	80.001	20.008	100.242	20.118	13.444	0.509
952.000	532.580	80.001	20.007	100.216	20.112	14.385	0.487
960.000	536.554	80.002	20.008	100.210	20.117	13.688	0.504
968.000	540.556	80.003	20.008	100.224	20.116	13.759	0.486
976.001	544.564	80.000	20.008	100.221	20.116	13.842	0.495
984.000	548.542	80.000	20.008	100.236	20.116	13.848	0.520
992.000	552.458	80.001	20.008	100.246	20.113	14.233	0.505
1000.000	556.496	80.002	20.008	100.243	20.114	14.141	0.491
1008.000	560.482	80.001	20.007	100.244	20.116	13.888	0.488
1016.000	564.578	80.002	20.008	100.251	20.114	14.138	0.508
1024.000	568.610	80.001	20.008	100.242	20.109	14.857	0.497
1032.000	572.665	80.002	20.007	100.245	20.110	14.762	0.508
1040.000	576.611	80.002	20.007	100.239	20.110	14.681	0.522
1048.000	580.626	80.001	20.007	100.256	20.110	14.692	0.511
1056.001	584.639	80.001	20.007	100.253	20.109	14.860	0.547
1064.001	588.598	80.002	20.008	100.253	20.109	14.992	0.481
1072.000	592.563	80.001	20.008	100.251	20.109	14.943	0.488
1080.000	596.568	80.001	20.008	100.263	20.110	14.819	0.517
1088.001	600.555	80.001	20.007	100.243	20.107	15.272	0.493
1096.000	604.531	80.002	20.008	100.224	20.102	16.039	0.513
1104.000	608.479	80.002	20.008	100.252	20.108	15.075	0.501
1112.000	612.389	80.002	20.008	100.225	20.102	15.975	0.476
1120.000	616.414	80.001	20.007	100.257	20.101	16.124	0.488
1128.000	620.378	80.002	20.008	100.257	20.102	16.034	0.487
1136.000	624.394	80.001	20.007	100.257	20.100	16.324	0.524
1144.001	628.511	80.001	20.008	100.244	20.103	15.812	0.489
1152.001	632.588	80.001	20.008	100.251	20.106	15.463	0.482
1160.000	636.678	80.001	20.008	100.225	20.104	15.757	0.543
1168.001	640.697	80.001	20.008	100.216	20.102	16.073	0.507
1176.000	644.675	80.001	20.008	100.216	20.102	16.004	0.478
1184.000	648.723	80.002	20.008	100.226	20.100	16.321	0.530
1192.000	652.727	80.002	20.007	100.269	20.104	15.657	0.499
1200.001	656.797	80.002	20.007	100.241	20.107	15.241	0.507
1208.000	660.879	80.001	20.007	100.237	20.106	15.426	0.553
1216.000	664.897	80.002	20.008	100.227	20.102	16.006	0.518
1224.000	668.885	80.002	20.007	100.230	20.100	16.386	0.497
1232.000	672.913	80.002	20.008	100.231	20.103	15.924	0.526
1240.000	676.917	80.002	20.008	100.235	20.099	16.535	0.543
1248.000	680.937	80.000	20.008	100.212	20.097	16.870	0.485
1256.000	684.800	80.002	20.008	100.294	20.103	15.865	0.446
1264.000	688.638	80.002	20.008	100.262	20.098	16.592	0.486
1272.001	692.650	80.001	20.008	100.281	20.102	16.018	0.561
1280.000	696.613	80.002	20.007	100.256	20.096	16.901	0.525
1288.000	700.608	80.002	20.007	100.259	20.099	16.538	0.463
1296.000	704.647	80.001	20.007	100.257	20.098	16.612	0.518
1304.001	708.711	80.003	20.007	100.252	20.095	17.095	0.532
1312.001	712.919	80.002	20.008	100.255	20.093	17.514	0.537
1320.000	716.923	80.003	20.008	100.265	20.095	17.120	0.479
1328.000	721.015	80.002	20.007	100.255	20.093	17.495	0.481
1336.001	725.146	80.000	20.008	100.238	20.097	16.852	0.534
1344.001	729.244	80.002	20.007	100.222	20.090	17.982	0.504
1352.001	733.347	80.003	20.008	100.261	20.092	17.617	0.550
1360.000	737.293	80.002	20.008	100.234	20.093	17.451	0.505
1368.000	741.293	80.001	20.007	100.258	20.093	17.496	0.570
1370.500	742.481	80.002	20.007	100.257	20.087	18.475	0.480