File: Experiments/TUBS/mcc/mcc_powder_3mg_dyn30_r1.txt
Sample Weight (mg):	3
Heating Rate (C/s):	0.5
Combustor Temp (C):	900
N2 Flow Rate (cc/min):	80
O2 Flow Rate (cc/min):	20
Time (s)	Temperature (C)	N2 flow rate (cc/min)	O2 flow rate (cc/min)	Flow Rate (cc/min)	Oxygen (%)	HRR (W/g)	Heating rate (C/s)
0.000	88.300	80.002	20.009	100.517	20.081	2.359	-0.022
8.000	88.028	80.004	20.009	100.532	20.081	2.366	-0.023
16.000	87.966	80.003	20.010	100.550	20.083	2.178	0.014
24.000	88.157	80.003	20.010	100.533	20.073	3.283	-0.001
32.000	88.508	80.004	20.010	100.640	20.056	5.019	0.036
40.000	89.239	80.003	20.010	100.693	20.041	6.554	0.195
48.001	90.379	80.003	20.010	100.674	20.041	6.614	0.179
56.001	91.939	80.002	20.010	100.732	20.036	7.094	0.244
64.000	93.908	80.002	20.010	100.746	20.028	8.005	0.262
72.000	96.318	80.003	20.009	100.757	20.022	8.555	0.309
80.000	99.078	80.003	20.009	100.760	20.023	8.442	0.383
88.001	102.105	80.004	20.009	100.767	20.018	8.988	0.391
96.000	105.450	80.003	20.009	100.794	20.018	8.987	0.450
104.000	109.130	80.002	20.008	100.821	20.017	9.152	0.504
112.000	113.041	80.002	20.010	100.801	20.016	9.165	0.446
120.001	117.243	80.002	20.010	100.818	20.018	9.039	0.527
128.000	121.564	80.002	20.010	100.795	20.014	9.405	0.528
136.000	126.055	80.003	20.009	100.790	20.015	9.362	0.591
144.000	130.582	80.003	20.010	100.770	20.017	9.058	0.558
152.000	135.238	80.004	20.009	100.725	20.016	9.246	0.543
160.000	139.885	80.002	20.010	100.698	20.013	9.555	0.604
168.000	144.472	80.004	20.010	100.688	20.013	9.488	0.558
176.000	149.080	80.002	20.010	100.648	20.009	9.939	0.542
184.000	153.592	80.002	20.010	100.667	20.004	10.418	0.553
192.000	158.102	80.003	20.010	100.671	19.984	12.522	0.590
200.001	162.576	80.002	20.009	100.665	19.971	13.890	0.543
208.000	166.941	80.002	20.010	100.675	19.959	15.135	0.522
216.000	171.315	80.002	20.010	100.681	19.952	15.908	0.569
224.001	175.599	80.003	20.010	100.654	19.954	15.696	0.515
232.000	179.957	80.002	20.010	100.649	19.962	14.849	0.532
240.000	184.197	80.002	20.010	100.646	19.982	12.798	0.528
248.000	188.472	80.003	20.009	100.620	19.996	11.318	0.538
256.000	192.654	80.003	20.009	100.644	20.010	9.799	0.523
264.000	196.860	80.003	20.010	100.657	20.022	8.525	0.573
272.000	200.871	80.003	20.009	100.638	20.025	8.311	0.511
280.000	204.911	80.004	20.008	100.547	20.021	8.625	0.496
288.000	208.912	80.003	20.009	100.612	20.029	7.852	0.497
296.000	213.025	80.004	20.010	100.597	20.028	7.938	0.526
304.000	217.076	80.005	20.009	100.592	20.029	7.860	0.514
312.000	221.186	80.003	20.009	100.598	20.027	8.089	0.546
320.000	225.189	80.003	20.010	100.588	20.032	7.516	0.554
328.000	229.188	80.003	20.009	100.586	20.037	6.962	0.472
336.000	233.285	80.003	20.009	100.553	20.035	7.172	0.485
344.000	237.271	80.002	20.009	100.571	20.039	6.785	0.528
352.001	241.210	80.002	20.009	100.578	20.040	6.698	0.458
360.000	245.317	80.003	20.010	100.575	20.038	6.920	0.506
368.000	249.298	80.003	20.009	100.682	20.038	6.916	0.491
376.000	253.209	80.002	20.009	100.557	20.031	7.651	0.464
384.000	257.124	80.002	20.010	100.576	20.024	8.314	0.520
392.000	261.087	80.001	20.010	100.592	20.016	9.221	0.470
400.000	265.062	80.001	20.010	100.565	20.007	10.113	0.480
408.000	269.085	80.002	20.010	100.530	19.991	11.778	0.512
416.000	273.166	80.003	20.010	100.546	19.972	13.831	0.545
424.000	277.153	80.003	20.010	100.557	19.959	15.140	0.486
432.000	281.020	80.003	20.010	100.558	19.938	17.302	0.474
440.000	285.301	80.003	20.009	100.553	19.920	19.257	0.558
448.000	289.348	80.003	20.009	100.525	19.907	20.553	0.494
456.000	293.347	80.002	20.009	100.520	19.894	21.915	0.482
464.000	297.448	80.003	20.010	100.520	19.885	22.873	0.532
472.000	301.398	80.002	20.010	100.533	19.866	24.910	0.486
480.000	305.394	80.004	20.009	100.550	19.838	27.824	0.517
488.000	309.316	80.002	20.010	100.547	19.798	32.007	0.483
496.000	313.366	80.004	20.010	100.531	19.736	38.442	0.520
504.000	317.317	80.002	20.010	100.527	19.659	46.490	0.512
512.000	321.338	80.002	20.010	100.498	19.565	56.317	0.491
520.000	325.386	80.002	20.009	100.449	19.454	67.921	0.519
528.000	329.408	80.003	20.009	100.457	19.332	80.583	0.508
536.000	333.370	80.002	20.010	100.450	19.204	94.024	0.504
544.000	337.313	80.003	20.011	100.448	19.082	106.939	0.522
552.000	341.164	80.002	20.012	100.454	18.969	118.655	0.502
560.000	345.091	80.002	20.010	100.483	18.875	128.480	0.506
568.000	348.977	80.001	20.009	100.510	18.794	137.026	0.503
576.000	352.914	80.002	20.010	100.525	18.723	144.417	0.495
584.000	356.803	80.001	20.009	100.607	18.591	158.060	0.468
592.000	360.688	80.003	20.009	100.526	18.459	171.921	0.491
600.000	364.652	80.003	20.009	100.539	18.466	171.626	0.516
608.000	368.580	80.003	20.010	100.571	18.577	159.903	0.527
616.000	372.738	80.002	20.010	100.753	18.649	152.363	0.496
624.000	376.738	80.002	20.009	100.821	18.720	144.924	0.473
632.000	380.902	80.002	20.010	100.738	18.811	135.428	0.516
640.000	384.938	80.002	20.009	100.736	18.942	121.750	0.501
648.000	388.975	80.002	20.009	100.746	19.100	105.242	0.529
656.001	393.034	80.002	20.010	100.771	19.267	87.756	0.501
664.000	396.921	80.003	20.009	100.792	19.438	69.762	0.478
672.000	400.847	80.002	20.009	100.770	19.589	53.965	0.481
680.000	404.769	80.002	20.009	100.748	19.721	40.084	0.468
688.000	408.815	80.003	20.009	100.757	19.832	28.496	0.533
696.000	412.778	80.005	20.011	100.737	19.912	20.057	0.487
704.000	416.781	80.001	20.010	100.688	19.972	13.783	0.493
712.000	420.703	80.003	20.009	100.639	20.015	9.264	0.435
720.000	424.727	80.004	20.009	100.624	20.044	6.243	0.493
728.000	428.776	80.003	20.009	100.593	20.066	3.948	0.521
736.000	432.767	80.003	20.010	100.568	20.081	2.358	0.495
744.000	436.811	80.002	20.009	100.533	20.089	1.602	0.515
752.000	440.882	80.003	20.009	100.537	20.091	1.316	0.507
760.000	444.768	80.002	20.009	100.522	20.095	0.928	0.470
768.000	448.746	80.003	20.010	100.522	20.095	0.954	0.493
776.001	452.697	80.002	20.009	100.518	20.097	0.674	0.507
784.000	456.621	80.002	20.010	100.497	20.095	0.932	0.534
792.000	460.602	80.003	20.010	100.502	20.101	0.338	0.497
800.000	464.573	80.003	20.010	100.516	20.097	0.707	0.482
808.000	468.551	80.003	20.009	100.515	20.099	0.499	0.519
816.000	472.530	80.003	20.009	100.509	20.099	0.513	0.522
824.000	476.430	80.002	20.009	100.516	20.101	0.327	0.435
832.000	480.395	80.003	20.009	100.498	20.100	0.418	0.498
840.000	484.418	80.003	20.009	100.498	20.104	-0.042	0.549
848.000	488.458	80.003	20.010	100.516	20.105	-0.064	0.519
856.000	492.455	80.003	20.009	100.518	20.105	-0.113	0.536
864.000	496.331	80.002	20.010	100.524	20.103	0.121	0.491
872.000	500.247	80.004	20.010	100.524	20.106	-0.228	0.507
880.001	504.056	80.002	20.010	100.543	20.103	0.046	0.500
888.000	507.812	80.002	20.009	100.520	20.104	-0.053	0.501
896.000	511.558	80.004	20.010	100.518	20.100	0.440	0.465
904.000	515.320	80.002	20.009	100.518	20.103	0.084	0.488
912.000	519.225	80.003	20.008	100.521	20.103	0.115	0.517
920.000	523.175	80.003	20.010	100.526	20.104	0.020	0.473
928.000	527.023	80.002	20.009	100.526	20.103	0.097	0.454
936.001	531.047	80.002	20.009	100.525	20.104	-0.004	0.502
944.000	535.108	80.003	20.009	100.511	20.106	-0.247	0.492
952.000	539.231	80.003	20.009	100.512	20.102	0.192	0.537
960.000	543.321	80.004	20.009	100.519	20.104	0.007	0.530
968.000	547.404	80.003	20.009	100.530	20.105	-0.146	0.511
976.001	551.363	80.004	20.010	100.537	20.105	-0.095	0.515
984.000	555.360	80.003	20.009	100.536	20.103	0.055	0.535
992.000	559.350	80.003	20.009	100.513	20.103	0.091	0.477
1000.000	563.356	80.001	20.009	100.546	20.104	-0.004	0.520
1008.000	567.367	80.003	20.009	100.528	20.103	0.097	0.515
1016.000	571.391	80.003	20.009	100.516	20.103	0.073	0.492
1024.001	575.352	80.003	20.009	100.524	20.096	0.795	0.470
1032.000	579.384	80.003	20.009	100.542	20.100	0.409	0.529
1040.000	583.302	80.002	20.009	100.532	20.096	0.868	0.491
1048.000	587.297	80.002	20.009	100.520	20.098	0.665	0.500
1056.000	591.161	80.001	20.009	100.529	20.098	0.634	0.460
1064.000	595.092	80.002	20.009	100.522	20.099	0.495	0.478
1072.001	599.111	80.003	20.010	100.518	20.097	0.747	0.515
1080.001	603.069	80.003	20.009	100.539	20.100	0.444	0.488
1088.001	607.042	80.003	20.009	100.558	20.098	0.574	0.517
1096.000	611.009	80.001	20.010	100.540	20.099	0.517	0.493
1104.001	614.901	80.004	20.010	100.534	20.092	1.198	0.507
1112.001	618.864	80.003	20.009	100.544	20.099	0.530	0.517
1120.001	622.766	80.001	20.009	100.555	20.099	0.482	0.470
1128.001	626.878	80.002	20.010	100.538	20.099	0.466	0.535
1136.000	630.903	80.003	20.010	100.552	20.100	0.416	0.489
1144.001	634.936	80.002	20.009	100.542	20.100	0.433	0.473
1152.000	639.073	80.003	20.009	100.532	20.092	1.295	0.543
1160.001	643.149	80.002	20.009	100.548	20.090	1.445	0.539
1168.001	647.162	80.002	20.009	100.532	20.092	1.253	0.516
1176.000	651.134	80.002	20.009	100.543	20.095	0.977	0.446
1184.001	655.198	80.003	20.011	100.549	20.093	1.091	0.517
1192.001	659.273	80.002	20.009	100.504	20.092	1.195	0.534
1200.001	663.307	80.003	20.009	100.542	20.092	1.268	0.514
1208.001	667.300	80.002	20.009	100.532	20.096	0.804	0.501
1216.001	671.292	80.002	20.009	100.557	20.095	0.901	0.502
1224.000	675.389	80.002	20.008	100.573	20.097	0.680	0.497
1232.000	679.418	80.001	20.009	100.555	20.093	1.160	0.497
1240.001	683.475	80.002	20.009	100.554	20.094	1.030	0.491
1248.000	687.501	80.003	20.009	100.554	20.094	1.065	0.486
1256.000	691.424	80.003	20.009	100.548	20.092	1.251	0.471
1264.001	695.341	80.002	20.009	100.542	20.090	1.423	0.511
1272.000	699.248	80.002	20.008	100.528	20.090	1.437	0.518
1280.000	703.139	80.001	20.009	100.549	20.091	1.375	0.479
1288.000	707.054	80.003	20.008	100.560	20.086	1.820	0.488
1296.000	710.952	80.004	20.009	100.544	20.086	1.922	0.443
1304.000	714.941	80.003	20.009	100.558	20.085	1.993	0.497
1312.001	719.035	80.004	20.009	100.552	20.084	2.129	0.538
1320.001	723.078	80.002	20.009	100.564	20.085	1.982	0.525
1328.000	727.259	80.003	20.009	100.529	20.085	1.951	0.553
1336.000	731.496	80.003	20.009	100.555	20.081	2.444	0.549
1344.000	735.687	80.003	20.009	100.541	20.084	2.079	0.505
1352.001	739.820	80.002	20.009	100.533	20.083	2.187	0.505
1359.500	743.714	80.003	20.009	100.548	20.082	2.267	0.530