File: Experiments/TUBS/mcc/mcc_piece_2mg_dyn30_r1.txt
Sample Weight (mg):	2
Heating Rate (C/s):	0.5
Combustor Temp (C):	900
N2 Flow Rate (cc/min):	80
O2 Flow Rate (cc/min):	20
Time (s)	Temperature (C)	N2 flow rate (cc/min)	O2 flow rate (cc/min)	Flow Rate (cc/min)	Oxygen (%)	HRR (W/g)	Heating rate (C/s)
0.000	90.134	79.997	20.008	99.689	20.169	0.799	-0.126
8.000	89.283	80.001	20.009	99.930	20.126	7.493	-0.114
16.000	88.447	80.000	20.009	100.219	20.091	13.036	-0.070
24.000	87.952	79.999	20.008	100.201	20.092	12.869	-0.068
32.000	87.712	80.000	20.008	100.164	20.090	13.170	-0.091
40.000	87.723	79.999	20.008	100.249	20.078	15.156	0.014
48.001	87.966	80.000	20.009	100.262	20.067	16.805	0.066
56.001	88.592	79.999	20.009	100.316	20.058	18.246	0.130
64.001	89.704	80.001	20.009	100.333	20.057	18.399	0.147
72.000	91.354	80.000	20.009	100.352	20.056	18.523	0.236
80.000	93.258	80.000	20.008	100.373	20.043	20.563	0.309
88.000	95.518	80.001	20.009	100.430	20.043	20.567	0.338
96.001	98.138	80.001	20.009	100.419	20.041	20.930	0.346
104.001	101.378	79.999	20.009	100.435	20.039	21.164	0.426
112.000	104.863	80.000	20.009	100.455	20.042	20.708	0.468
120.000	108.602	80.001	20.009	100.431	20.045	20.312	0.523
128.000	112.738	80.000	20.009	100.416	20.046	20.175	0.528
136.000	117.076	79.999	20.009	100.410	20.048	19.739	0.577
144.000	121.603	80.001	20.009	100.416	20.053	19.057	0.551
152.000	126.202	80.000	20.009	100.396	20.057	18.311	0.574
160.000	130.839	80.001	20.009	100.369	20.058	18.209	0.566
168.000	135.692	80.000	20.009	100.352	20.058	18.269	0.629
176.000	140.402	80.000	20.009	100.357	20.065	17.152	0.607
184.000	145.161	80.001	20.009	100.341	20.071	16.147	0.553
192.000	149.909	80.000	20.008	100.299	20.069	16.534	0.599
200.000	154.557	80.001	20.008	100.249	20.070	16.396	0.553
208.000	159.135	80.001	20.008	100.312	20.076	15.422	0.586
216.000	163.594	80.000	20.008	100.299	20.075	15.576	0.526
224.000	168.046	80.002	20.009	100.348	20.078	15.096	0.560
232.000	172.412	80.000	20.009	100.296	20.072	15.958	0.527
240.000	176.810	80.001	20.009	100.387	20.068	16.628	0.529
248.000	181.065	80.000	20.009	100.250	20.069	16.472	0.523
256.000	185.298	80.000	20.009	100.242	20.066	16.956	0.499
264.000	189.524	80.001	20.009	100.263	20.071	16.222	0.517
272.000	193.659	80.001	20.009	100.278	20.072	16.089	0.507
280.000	197.719	80.000	20.009	100.408	20.071	16.168	0.486
288.000	201.736	80.000	20.009	100.244	20.068	16.633	0.488
296.000	205.732	80.001	20.009	100.382	20.068	16.581	0.514
304.000	209.765	80.000	20.008	100.259	20.068	16.698	0.519
312.000	213.752	80.000	20.008	100.260	20.070	16.270	0.529
320.000	217.688	79.999	20.009	100.245	20.066	16.915	0.505
328.000	221.717	80.001	20.009	100.242	20.066	16.954	0.477
336.000	225.788	80.001	20.009	100.235	20.066	16.945	0.552
344.000	229.797	80.001	20.009	100.216	20.068	16.602	0.484
352.000	233.837	80.000	20.009	100.211	20.063	17.355	0.462
360.000	237.966	80.001	20.009	100.225	20.066	16.879	0.548
368.000	242.007	80.001	20.009	100.200	20.067	16.801	0.543
376.000	246.096	79.999	20.007	100.266	20.065	17.071	0.483
384.000	250.142	80.001	20.008	100.213	20.073	15.857	0.462
392.000	254.105	80.002	20.008	100.208	20.069	16.510	0.458
400.000	258.142	80.000	20.008	100.249	20.068	16.661	0.516
408.000	262.102	80.001	20.008	100.235	20.070	16.372	0.492
416.000	266.091	80.002	20.008	100.227	20.063	17.418	0.497
424.000	270.191	80.001	20.008	100.218	20.060	17.868	0.518
432.000	274.213	80.001	20.008	100.239	20.054	18.796	0.515
440.000	278.329	80.000	20.008	100.239	20.047	19.924	0.493
448.000	282.349	80.000	20.008	100.205	20.037	21.526	0.487
456.000	286.391	80.001	20.008	100.229	20.031	22.444	0.462
464.000	290.384	80.001	20.008	100.230	20.018	24.503	0.511
472.000	294.367	80.001	20.007	100.247	20.012	25.404	0.477
480.000	298.391	80.001	20.008	100.236	20.001	27.106	0.514
488.000	302.417	80.001	20.008	100.225	20.002	26.897	0.508
496.000	306.444	80.000	20.008	100.212	19.991	28.654	0.520
504.000	310.565	80.001	20.008	100.197	19.976	31.007	0.508
512.000	314.621	80.000	20.007	100.229	19.957	34.032	0.513
520.001	318.713	80.001	20.007	100.202	19.919	39.993	0.500
528.000	322.849	80.001	20.008	100.203	19.876	46.746	0.534
536.000	326.909	80.001	20.008	100.201	19.796	59.192	0.485
544.000	330.969	80.000	20.008	100.186	19.699	74.399	0.537
552.000	334.921	80.000	20.008	100.194	19.615	87.424	0.487
560.000	338.887	79.999	20.008	100.254	19.486	107.628	0.491
568.000	342.870	80.000	20.009	100.183	19.354	128.290	0.547
576.000	346.842	80.000	20.010	100.200	19.216	149.930	0.510
584.000	350.690	80.000	20.009	100.228	19.075	172.010	0.484
592.000	354.706	80.000	20.008	100.237	18.958	190.321	0.532
600.000	358.688	80.000	20.008	100.248	18.875	203.345	0.520
608.000	362.586	79.999	20.009	100.226	18.821	211.793	0.508
616.000	366.546	80.001	20.009	100.301	18.794	215.941	0.476
624.000	370.411	79.999	20.009	100.279	18.795	215.942	0.465
632.000	374.360	80.001	20.009	100.254	18.874	203.407	0.512
640.000	378.299	80.000	20.009	100.373	18.966	189.083	0.501
648.000	382.127	79.999	20.009	100.255	19.141	161.813	0.461
656.000	385.967	80.001	20.008	100.361	19.297	137.366	0.492
664.000	389.905	80.000	20.008	100.328	19.439	115.115	0.499
672.000	393.905	79.999	20.009	100.337	19.555	96.928	0.446
680.000	397.982	80.000	20.009	100.276	19.686	76.430	0.508
688.000	401.974	80.001	20.009	100.295	19.807	57.529	0.497
696.000	405.941	80.001	20.009	100.283	19.890	44.427	0.487
704.000	409.974	79.999	20.009	100.266	19.953	34.614	0.514
712.000	414.046	79.999	20.009	100.228	20.001	27.098	0.489
720.000	418.138	80.001	20.008	100.239	20.035	21.741	0.534
728.000	422.126	80.001	20.009	100.203	20.050	19.506	0.498
736.000	426.052	80.001	20.008	100.219	20.070	16.260	0.497
744.000	429.999	80.001	20.008	100.244	20.079	14.958	0.493
752.000	434.001	80.000	20.008	100.209	20.089	13.347	0.491
760.000	437.790	80.000	20.008	100.194	20.098	11.874	0.483
768.000	441.735	80.001	20.008	100.183	20.100	11.645	0.463
776.000	445.713	80.001	20.008	100.195	20.105	10.861	0.497
784.000	449.619	80.001	20.008	100.209	20.110	10.067	0.482
792.000	453.508	80.001	20.008	100.201	20.111	9.839	0.445
800.000	457.577	80.002	20.008	100.186	20.111	9.868	0.502
808.000	461.612	80.001	20.008	100.197	20.111	9.905	0.523
816.000	465.509	80.001	20.008	100.210	20.114	9.389	0.481
824.000	469.445	79.999	20.007	100.229	20.115	9.216	0.466
832.000	473.312	80.000	20.008	100.227	20.119	8.712	0.468
840.000	477.144	80.000	20.008	100.176	20.112	9.817	0.490
848.000	481.063	80.001	20.008	100.166	20.105	10.777	0.496
856.000	485.089	80.000	20.008	100.182	20.107	10.578	0.541
864.000	489.044	80.002	20.008	100.197	20.112	9.753	0.501
872.000	493.012	80.002	20.008	100.201	20.108	10.456	0.496
880.000	496.986	80.000	20.008	100.147	20.108	10.389	0.456
888.000	500.914	80.001	20.008	100.181	20.114	9.490	0.468
896.000	504.763	80.001	20.008	100.137	20.110	10.097	0.434
904.000	508.537	80.002	20.008	100.159	20.104	10.968	0.445
912.000	512.389	80.000	20.008	100.163	20.104	11.069	0.479
920.000	516.279	80.000	20.007	100.205	20.109	10.165	0.497
928.000	520.251	79.999	20.008	100.207	20.104	10.948	0.493
936.000	524.246	80.000	20.008	100.222	20.110	10.108	0.507
944.000	528.327	79.999	20.008	100.229	20.111	9.840	0.523
952.000	532.419	80.000	20.007	100.241	20.115	9.262	0.524
960.000	536.436	80.002	20.008	100.239	20.112	9.767	0.491
968.000	540.460	80.001	20.008	100.209	20.106	10.621	0.450
976.000	544.457	80.001	20.008	100.209	20.106	10.720	0.458
984.000	548.525	80.000	20.008	100.219	20.107	10.462	0.515
992.000	552.570	80.000	20.007	100.183	20.104	10.978	0.525
1000.000	556.544	80.000	20.007	100.233	20.105	10.867	0.465
1008.000	560.495	80.000	20.008	100.176	20.102	11.255	0.492
1016.000	564.451	80.000	20.008	100.176	20.105	10.785	0.515
1024.001	568.377	80.001	20.008	100.191	20.108	10.432	0.492
1032.000	572.419	80.000	20.007	100.207	20.108	10.404	0.510
1040.001	576.272	80.000	20.007	100.227	20.111	9.939	0.513
1048.000	580.212	80.002	20.008	100.255	20.112	9.774	0.484
1056.001	584.183	79.999	20.008	100.210	20.108	10.413	0.466
1064.000	588.180	80.000	20.008	100.232	20.109	10.295	0.487
1072.000	592.079	80.001	20.008	100.271	20.118	8.878	0.490
1080.000	596.063	80.000	20.008	100.240	20.110	10.125	0.510
1088.001	600.044	79.999	20.008	100.200	20.106	10.710	0.490
1096.001	604.006	80.001	20.008	100.232	20.107	10.519	0.499
1104.000	608.058	80.000	20.007	100.279	20.114	9.435	0.505
1112.000	612.089	80.001	20.008	100.242	20.110	10.038	0.511
1120.000	616.092	80.000	20.008	100.176	20.104	10.959	0.480
1128.000	620.070	80.000	20.008	100.222	20.103	11.104	0.477
1136.001	623.903	79.999	20.008	100.254	20.107	10.512	0.502
1144.001	627.908	80.002	20.008	100.198	20.104	11.001	0.486
1152.000	631.896	79.999	20.008	100.191	20.098	11.893	0.483
1160.001	635.837	79.999	20.008	100.254	20.102	11.337	0.445
1168.000	639.929	80.000	20.008	100.218	20.100	11.554	0.533
1176.000	644.030	80.001	20.008	100.197	20.100	11.565	0.514
1184.000	648.213	80.000	20.008	100.219	20.103	11.188	0.529
1192.000	652.333	80.000	20.008	100.228	20.109	10.246	0.504
1200.000	656.467	80.000	20.008	100.216	20.107	10.476	0.515
1208.000	660.583	80.001	20.008	100.222	20.104	11.029	0.550
1216.001	664.711	80.001	20.008	100.221	20.104	11.044	0.503
1224.001	668.749	79.999	20.008	100.235	20.110	10.116	0.536
1232.001	672.697	80.002	20.008	100.215	20.107	10.594	0.511
1240.001	676.680	80.001	20.008	100.229	20.104	11.075	0.531
1248.000	680.709	80.000	20.008	100.239	20.105	10.872	0.503
1256.001	684.808	80.001	20.007	100.240	20.101	11.488	0.539
1264.001	688.883	80.000	20.008	100.308	20.112	9.687	0.487
1272.001	692.741	80.001	20.008	100.232	20.107	10.500	0.517
1280.000	696.762	80.000	20.007	100.250	20.108	10.454	0.497
1288.001	700.838	80.000	20.008	100.239	20.105	10.803	0.505
1296.000	704.849	79.999	20.008	100.250	20.105	10.843	0.468
1304.000	708.990	80.000	20.008	100.265	20.108	10.408	0.548
1312.000	713.038	80.001	20.008	100.238	20.103	11.100	0.501
1320.000	717.073	80.000	20.008	100.260	20.105	10.875	0.503
1328.001	720.923	80.000	20.008	100.253	20.104	11.074	0.471
1336.000	724.742	79.999	20.008	100.250	20.105	10.925	0.512
1344.001	728.829	80.000	20.008	100.248	20.103	11.201	0.515
1352.000	732.878	80.001	20.008	100.226	20.102	11.326	0.508
1360.000	737.092	80.001	20.008	100.238	20.102	11.277	0.520
1368.001	741.242	80.001	20.008	100.232	20.108	10.448	0.505
1369.501	742.088	80.000	20.007	100.244	20.106	10.730	0.564