File: Experiments/TGA/TUBS/mcc/mcc_powder_1mg_dyn30_r1.txt
Sample Weight (mg):	1.02
Heating Rate (C/s):	0.5
Combustor Temp (C):	900
N2 Flow Rate (cc/min):	80
O2 Flow Rate (cc/min):	20
Time (s)	Temperature (C)	N2 flow rate (cc/min)	O2 flow rate (cc/min)	Flow Rate (cc/min)	Oxygen (%)	HRR (W/g)	Heating rate (C/s)
0.000	88.496	80.003	20.009	100.335	20.017	14.870	0.015
8.000	88.180	80.005	20.009	100.314	20.012	16.509	0.003
16.000	88.124	80.003	20.010	100.310	20.008	17.584	0.017
24.000	88.183	80.005	20.009	100.338	20.008	17.521	-0.016
32.000	88.421	80.007	20.010	100.368	19.999	20.448	0.041
40.000	88.982	80.004	20.010	100.442	19.994	22.022	0.085
48.001	89.911	80.004	20.010	100.504	19.983	25.458	0.127
56.000	91.204	80.005	20.009	100.538	19.975	27.636	0.166
64.001	92.989	80.004	20.009	100.557	19.974	28.012	0.272
72.001	95.216	80.005	20.009	100.547	19.969	29.508	0.315
80.000	97.734	80.005	20.009	100.558	19.962	31.892	0.344
88.000	100.635	80.004	20.009	100.585	19.963	31.618	0.403
96.000	103.916	80.004	20.009	100.602	19.961	32.007	0.465
104.000	107.518	80.004	20.009	100.586	19.960	32.509	0.450
112.000	111.477	80.005	20.009	100.623	19.960	32.409	0.537
120.000	115.616	80.003	20.009	100.599	19.961	32.006	0.512
128.000	120.034	80.004	20.009	100.590	19.966	30.666	0.567
136.000	124.599	80.004	20.009	100.542	19.966	30.469	0.570
144.000	129.191	80.006	20.009	100.529	19.968	30.054	0.605
152.001	133.870	80.005	20.010	100.546	19.970	29.229	0.594
160.000	138.518	80.005	20.009	100.530	19.974	28.162	0.607
168.000	143.099	80.004	20.009	100.487	19.975	27.721	0.592
176.000	147.700	80.005	20.009	100.485	19.974	28.155	0.544
184.000	152.258	80.005	20.009	100.483	19.973	28.371	0.591
192.000	156.698	80.004	20.009	100.507	19.970	29.315	0.588
200.000	161.151	80.004	20.008	100.481	19.969	29.678	0.553
208.000	165.484	80.005	20.010	100.497	19.961	32.167	0.511
216.000	169.926	80.005	20.009	100.427	19.953	34.402	0.555
224.000	174.126	80.005	20.009	100.408	19.953	34.621	0.465
232.000	178.370	80.005	20.009	100.427	19.952	34.709	0.527
240.000	182.612	80.004	20.009	100.398	19.956	33.539	0.599
248.000	186.750	80.006	20.009	100.439	19.971	28.994	0.480
256.000	190.806	80.004	20.009	100.426	19.980	26.112	0.434
264.000	194.952	80.004	20.010	100.446	19.991	22.694	0.514
272.000	199.028	80.005	20.009	100.426	19.995	21.738	0.515
280.000	203.067	80.004	20.009	100.435	19.991	22.883	0.503
288.001	207.115	80.003	20.009	100.415	19.996	21.307	0.486
296.000	211.097	80.004	20.009	100.391	19.995	21.677	0.483
304.000	215.140	80.003	20.009	100.378	19.997	20.968	0.509
312.000	219.123	80.004	20.009	100.398	19.998	20.723	0.486
320.000	223.142	80.004	20.009	100.412	19.997	20.975	0.471
328.000	227.155	80.003	20.009	100.411	20.000	19.918	0.484
336.001	231.184	80.004	20.010	100.393	20.005	18.367	0.502
344.000	235.149	80.003	20.009	100.414	20.001	19.720	0.508
352.000	239.222	80.005	20.009	100.391	19.998	20.551	0.513
360.000	243.284	80.005	20.009	100.408	20.003	19.017	0.586
368.000	247.145	80.004	20.009	100.406	20.006	18.093	0.504
376.000	251.223	80.004	20.009	100.366	20.005	18.503	0.475
384.000	255.239	80.004	20.009	100.342	20.005	18.538	0.507
392.000	259.236	80.004	20.009	100.372	20.003	19.204	0.483
400.000	263.215	80.005	20.009	100.372	20.004	18.974	0.520
408.000	267.246	80.006	20.009	100.385	19.998	20.798	0.520
416.000	271.332	80.004	20.009	100.374	19.992	22.420	0.537
424.000	275.295	80.004	20.009	100.369	19.987	23.955	0.478
432.000	279.347	80.006	20.009	100.374	19.984	24.983	0.482
440.000	283.375	80.004	20.009	100.366	19.973	28.364	0.500
448.000	287.500	80.004	20.009	100.375	19.969	29.654	0.542
456.001	291.561	80.005	20.010	100.365	19.963	31.300	0.520
464.000	295.526	80.004	20.010	100.386	19.959	32.513	0.512
472.000	299.560	80.005	20.010	100.379	19.964	31.173	0.513
480.000	303.532	80.004	20.010	100.357	19.952	34.696	0.499
488.000	307.641	80.005	20.010	100.371	19.946	36.674	0.573
496.000	311.483	80.005	20.010	100.359	19.940	38.424	0.491
504.000	315.419	80.004	20.010	100.332	19.924	43.376	0.473
512.000	319.491	80.003	20.009	100.364	19.901	50.402	0.511
520.000	323.469	80.004	20.010	100.346	19.869	60.161	0.490
528.000	327.511	80.005	20.010	100.312	19.833	71.198	0.520
536.000	331.481	80.005	20.010	100.312	19.795	83.087	0.497
544.000	335.427	80.005	20.010	100.304	19.745	98.348	0.474
552.000	339.434	80.005	20.010	100.306	19.691	114.912	0.572
560.000	343.382	80.004	20.010	100.302	19.645	128.966	0.481
568.000	347.355	80.005	20.010	100.302	19.599	143.108	0.515
576.000	351.299	80.004	20.010	100.307	19.561	154.830	0.519
584.000	355.173	80.004	20.010	100.342	19.518	168.071	0.423
592.000	359.131	80.003	20.011	100.341	19.475	181.146	0.504
600.000	363.100	80.005	20.010	100.327	19.439	192.081	0.473
608.000	367.145	80.004	20.010	100.287	19.455	187.448	0.526
616.000	371.158	80.005	20.010	100.359	19.470	182.686	0.520
624.000	375.170	80.004	20.009	100.412	19.496	174.682	0.500
632.000	379.235	80.004	20.009	100.412	19.524	166.282	0.519
640.000	383.316	80.005	20.009	100.424	19.576	150.335	0.492
648.000	387.235	80.005	20.009	100.427	19.633	132.770	0.534
656.000	391.246	80.004	20.009	100.457	19.701	111.915	0.489
664.000	395.224	80.005	20.009	100.484	19.768	91.397	0.489
672.000	399.193	80.005	20.009	100.510	19.825	73.703	0.492
680.000	403.193	80.005	20.009	100.460	19.873	59.088	0.488
688.000	407.069	80.005	20.009	100.438	19.917	45.652	0.482
696.000	411.036	80.004	20.009	100.453	19.952	34.737	0.492
704.000	414.972	80.004	20.009	100.412	19.976	27.367	0.492
712.001	418.908	80.005	20.009	100.381	19.990	23.248	0.514
720.000	422.883	80.006	20.009	100.369	19.999	20.219	0.523
728.000	426.742	80.006	20.009	100.366	20.013	16.125	0.476
736.000	430.699	80.004	20.009	100.377	20.018	14.413	0.440
744.000	434.733	80.004	20.009	100.378	20.015	15.379	0.538
752.000	438.731	80.003	20.009	100.348	20.017	14.904	0.517
760.000	442.741	80.003	20.009	100.320	20.014	15.784	0.493
768.000	446.767	80.004	20.009	100.343	20.018	14.663	0.501
776.000	450.732	80.004	20.010	100.331	20.017	14.885	0.506
784.000	454.749	80.004	20.009	100.344	20.020	13.891	0.487
792.000	458.701	80.005	20.009	100.337	20.016	15.145	0.491
800.000	462.661	80.004	20.008	100.339	20.020	13.968	0.504
808.000	466.591	80.004	20.010	100.298	20.017	14.965	0.471
816.000	470.644	80.004	20.009	100.330	20.020	13.808	0.531
824.000	474.566	80.005	20.009	100.334	20.021	13.453	0.521
832.000	478.566	80.002	20.008	100.351	20.021	13.491	0.513
840.000	482.551	80.004	20.009	100.358	20.020	13.906	0.515
848.000	486.521	80.006	20.009	100.358	20.023	12.880	0.513
856.000	490.496	80.003	20.009	100.348	20.022	13.253	0.497
864.000	494.509	80.003	20.009	100.335	20.021	13.497	0.505
872.000	498.453	80.003	20.008	100.337	20.022	13.281	0.497
880.000	502.400	80.005	20.009	100.319	20.016	15.248	0.515
888.001	506.326	80.004	20.008	100.350	20.025	12.389	0.482
896.000	510.258	80.003	20.008	100.361	20.022	13.437	0.461
904.000	514.318	80.004	20.008	100.349	20.021	13.642	0.445
912.000	518.341	80.006	20.009	100.363	20.023	13.071	0.453
920.000	522.301	80.005	20.009	100.339	20.018	14.431	0.470
928.000	526.331	80.005	20.009	100.343	20.016	15.018	0.519
936.000	530.266	80.005	20.008	100.330	20.019	14.233	0.460
944.000	534.254	80.004	20.008	100.356	20.017	14.899	0.472
952.000	538.202	80.005	20.009	100.356	20.020	13.977	0.495
960.000	542.118	80.004	20.008	100.359	20.018	14.440	0.449
968.000	546.050	80.004	20.009	100.364	20.022	13.249	0.504
976.000	549.878	80.004	20.009	100.385	20.020	13.808	0.508
984.000	553.790	80.005	20.009	100.349	20.021	13.476	0.537
992.000	557.713	80.004	20.009	100.359	20.019	14.323	0.479
1000.000	561.772	80.004	20.008	100.359	20.018	14.632	0.535
1008.000	565.719	80.003	20.009	100.405	20.019	14.063	0.511
1016.000	569.795	80.004	20.009	100.352	20.018	14.627	0.521
1024.000	573.792	80.004	20.009	100.336	20.017	14.752	0.491
1032.000	577.736	80.003	20.009	100.367	20.016	15.155	0.508
1040.001	581.719	80.004	20.009	100.365	20.013	15.936	0.480
1048.000	585.732	80.004	20.009	100.354	20.016	15.175	0.496
1056.000	589.702	80.004	20.008	100.377	20.016	15.232	0.514
1064.000	593.696	80.006	20.008	100.372	20.015	15.426	0.472
1072.000	597.681	80.004	20.010	100.355	20.017	14.752	0.513
1080.001	601.742	80.006	20.009	100.346	20.013	16.215	0.503
1088.000	605.849	80.004	20.008	100.370	20.015	15.548	0.512
1096.000	609.892	80.005	20.008	100.381	20.015	15.521	0.542
1104.001	613.909	80.005	20.009	100.369	20.013	16.009	0.476
1112.000	617.958	80.004	20.009	100.377	20.016	15.137	0.467
1120.001	621.953	80.004	20.009	100.361	20.015	15.460	0.466
1128.001	625.931	80.005	20.009	100.390	20.012	16.300	0.495
1136.001	629.891	80.005	20.009	100.380	20.011	16.713	0.436
1144.001	633.760	80.005	20.009	100.379	20.010	16.898	0.517
1152.001	637.749	80.005	20.009	100.422	20.009	17.255	0.497
1160.001	641.756	80.003	20.009	100.395	20.011	16.669	0.506
1168.000	645.741	80.004	20.009	100.374	20.008	17.570	0.493
1176.001	649.754	80.005	20.009	100.404	20.010	16.838	0.495
1184.000	653.736	80.005	20.009	100.378	20.000	20.062	0.518
1192.000	657.763	80.004	20.009	100.399	20.012	16.514	0.495
1200.000	661.728	80.005	20.009	100.398	20.007	17.924	0.461
1208.000	665.859	80.005	20.009	100.371	20.009	17.237	0.473
1216.000	669.895	80.005	20.008	100.391	20.003	19.189	0.529
1224.001	673.953	80.004	20.009	100.378	20.005	18.416	0.510
1232.001	677.947	80.004	20.009	100.415	20.015	15.313	0.491
1240.001	681.952	80.005	20.009	100.388	20.006	18.165	0.453
1248.000	686.088	80.005	20.009	100.366	20.002	19.326	0.532
1256.001	690.134	80.006	20.009	100.393	20.003	19.242	0.560
1264.000	694.118	80.005	20.009	100.410	20.004	18.845	0.528
1272.001	698.154	80.005	20.009	100.394	20.001	19.651	0.510
1280.000	702.214	80.004	20.009	100.390	20.000	19.967	0.556
1288.000	706.166	80.004	20.009	100.388	19.999	20.470	0.485
1296.000	710.246	80.004	20.009	100.394	20.004	18.906	0.515
1304.000	714.204	80.005	20.009	100.379	19.998	20.514	0.521
1312.000	718.105	80.005	20.009	100.362	19.995	21.459	0.486
1320.001	721.690	80.005	20.009	100.410	19.998	20.829	0.438
1328.000	725.407	80.006	20.009	100.370	20.001	19.905	0.472
1336.000	729.327	80.005	20.008	100.387	20.003	19.037	0.500
1344.001	733.339	80.004	20.009	100.448	20.005	18.639	0.506
1352.000	737.582	80.004	20.009	100.410	19.991	22.895	0.559
1360.001	741.853	80.005	20.009	100.392	19.990	23.159	0.541
1360.501	742.128	80.005	20.009	100.397	19.989	23.302	0.559