File: Experiments/TGA/TUBS/mcc/mcc_piece_1mg_dyn30_r1.txt
Sample Weight (mg):	0.99
Heating Rate (C/s):	0.5
Combustor Temp (C):	900
N2 Flow Rate (cc/min):	80
O2 Flow Rate (cc/min):	20
Time (s)	Temperature (C)	N2 flow rate (cc/min)	O2 flow rate (cc/min)	Flow Rate (cc/min)	Oxygen (%)	HRR (W/g)	Heating rate (C/s)
0.000	84.597	80.000	20.008	100.151	20.096	-0.400	0.007
8.000	84.533	80.000	20.008	100.221	20.099	-1.310	-0.039
16.000	84.611	79.999	20.008	100.117	20.096	-0.500	0.062
24.000	84.807	80.000	20.008	100.210	20.099	-1.528	0.026
32.000	85.288	80.001	20.010	100.200	20.095	-0.160	0.067
40.000	85.858	80.000	20.009	100.247	20.082	4.048	0.083
48.001	86.704	80.000	20.008	100.309	20.074	6.513	0.143
56.000	87.959	80.001	20.008	100.335	20.063	9.886	0.167
64.000	89.550	80.002	20.008	100.422	20.047	15.103	0.204
72.000	91.692	80.002	20.008	100.451	20.041	17.017	0.298
80.001	94.370	80.000	20.008	100.509	20.036	18.434	0.339
88.000	97.565	80.001	20.008	100.521	20.036	18.422	0.427
96.000	101.123	80.001	20.008	100.503	20.032	19.672	0.460
104.000	105.107	80.001	20.008	100.480	20.035	18.834	0.534
112.000	109.419	80.002	20.008	100.481	20.040	17.181	0.557
120.000	114.032	80.002	20.008	100.466	20.043	16.294	0.585
128.000	118.802	80.001	20.008	100.443	20.041	16.834	0.562
136.000	123.790	80.001	20.009	100.458	20.050	14.224	0.643
144.000	128.663	80.002	20.008	100.421	20.056	12.347	0.602
152.000	133.705	80.001	20.008	100.399	20.058	11.624	0.647
160.000	138.701	80.002	20.008	100.356	20.067	8.708	0.593
168.000	143.610	80.001	20.008	100.358	20.070	7.738	0.601
176.000	148.359	80.001	20.009	100.365	20.072	7.191	0.546
184.000	153.072	80.001	20.009	100.371	20.076	5.781	0.589
192.000	157.692	80.001	20.009	100.338	20.077	5.432	0.553
200.000	162.200	80.001	20.009	100.324	20.080	4.490	0.601
208.000	166.501	80.003	20.008	100.321	20.078	5.290	0.445
216.000	170.850	80.001	20.008	100.324	20.075	6.078	0.564
224.000	175.069	80.001	20.009	100.297	20.078	5.156	0.500
232.000	179.292	80.001	20.009	100.308	20.076	5.912	0.570
240.000	183.370	80.001	20.009	100.299	20.078	5.291	0.489
248.000	187.475	80.001	20.009	100.310	20.076	5.818	0.485
256.000	191.496	80.002	20.008	100.322	20.077	5.511	0.457
264.000	195.537	80.000	20.009	100.285	20.078	5.177	0.528
272.000	199.531	80.001	20.009	100.277	20.078	5.150	0.501
280.000	203.547	80.002	20.009	100.285	20.079	4.896	0.495
288.000	207.577	80.002	20.009	100.302	20.081	4.281	0.501
296.000	211.539	80.000	20.008	100.321	20.077	5.503	0.471
304.000	215.637	80.003	20.008	100.298	20.081	4.234	0.529
312.000	219.673	80.002	20.008	100.291	20.080	4.548	0.488
320.000	223.760	80.001	20.008	100.277	20.080	4.728	0.508
328.000	227.871	80.003	20.008	100.275	20.081	4.388	0.512
336.000	231.991	80.002	20.008	100.302	20.082	3.847	0.520
344.000	235.991	80.002	20.008	100.299	20.086	2.765	0.481
352.000	240.088	80.002	20.008	100.306	20.087	2.437	0.536
360.000	244.216	80.002	20.008	100.289	20.086	2.611	0.502
368.000	248.280	80.002	20.008	100.293	20.082	3.826	0.521
376.000	252.324	80.002	20.008	100.294	20.082	3.847	0.495
384.000	256.300	80.001	20.009	100.287	20.083	3.707	0.504
392.000	260.337	80.001	20.008	100.281	20.083	3.653	0.547
400.000	264.311	80.001	20.008	100.288	20.079	5.001	0.507
408.000	268.334	80.001	20.008	100.264	20.078	5.175	0.516
416.000	272.298	80.001	20.008	100.269	20.077	5.576	0.497
424.000	276.296	80.002	20.010	100.258	20.076	5.984	0.496
432.000	280.261	80.001	20.009	100.271	20.071	7.379	0.509
440.000	284.295	80.000	20.010	100.284	20.070	7.912	0.524
448.000	288.282	80.000	20.010	100.263	20.063	9.937	0.477
456.000	292.356	80.001	20.009	100.253	20.059	11.338	0.531
464.000	296.366	80.001	20.010	100.259	20.058	11.485	0.495
472.000	300.446	80.001	20.010	100.259	20.056	12.164	0.517
480.000	304.407	80.000	20.010	100.254	20.050	14.152	0.521
488.000	308.471	80.002	20.008	100.240	20.049	14.328	0.519
496.000	312.427	80.001	20.009	100.244	20.044	15.881	0.493
504.000	316.364	80.000	20.008	100.253	20.031	20.182	0.487
512.000	320.327	80.000	20.008	100.259	20.018	24.193	0.475
520.000	324.375	80.001	20.008	100.276	19.981	35.779	0.504
528.000	328.424	80.001	20.009	100.249	19.955	44.140	0.552
536.000	332.344	80.001	20.008	100.278	19.920	55.161	0.479
544.000	336.319	80.001	20.009	100.291	19.860	74.050	0.451
552.000	340.339	80.001	20.009	100.267	19.792	95.621	0.497
560.000	344.258	80.001	20.010	100.259	19.714	120.161	0.484
568.000	348.263	80.001	20.010	100.299	19.628	147.539	0.531
576.000	352.305	80.002	20.009	100.243	19.574	164.708	0.495
584.001	356.274	80.001	20.008	100.280	19.516	182.867	0.479
592.000	360.391	80.001	20.009	100.263	19.468	198.146	0.503
600.000	364.427	80.001	20.009	100.307	19.426	211.267	0.516
608.000	368.491	80.002	20.009	100.280	19.431	209.854	0.489
616.000	372.506	80.002	20.009	100.326	19.444	205.508	0.484
624.000	376.511	80.002	20.009	100.324	19.438	207.470	0.478
632.000	380.428	80.001	20.010	100.212	19.523	180.731	0.508
640.000	384.395	80.002	20.008	100.312	19.632	146.357	0.495
648.000	388.464	80.001	20.009	100.278	19.714	120.365	0.494
656.001	392.521	80.001	20.008	100.265	19.777	100.448	0.481
664.000	396.558	80.001	20.008	100.286	19.841	80.233	0.502
672.001	400.540	80.002	20.008	100.265	19.906	59.487	0.471
680.000	404.489	80.003	20.009	100.248	19.957	43.596	0.474
688.000	408.440	80.001	20.009	100.263	19.998	30.574	0.493
696.000	412.368	80.001	20.009	100.234	20.034	19.290	0.480
704.000	416.130	80.002	20.009	100.252	20.054	12.733	0.458
712.000	420.055	80.000	20.009	100.240	20.068	8.464	0.448
720.000	424.003	80.003	20.008	100.230	20.083	3.717	0.464
728.000	427.936	80.001	20.008	100.216	20.086	2.576	0.486
736.000	431.966	80.002	20.008	100.211	20.091	1.281	0.521
744.000	435.873	80.002	20.009	100.226	20.100	-1.548	0.480
752.000	439.824	80.001	20.008	100.224	20.099	-1.355	0.452
760.000	443.831	80.002	20.009	100.206	20.104	-2.909	0.519
768.000	447.764	80.001	20.008	100.211	20.105	-3.190	0.479
776.000	451.735	80.002	20.009	100.211	20.102	-2.416	0.519
784.000	455.729	80.001	20.009	100.207	20.100	-1.702	0.508
792.000	459.668	80.001	20.008	100.194	20.104	-3.003	0.511
800.000	463.488	80.001	20.008	100.201	20.104	-2.950	0.435
808.000	467.433	80.002	20.008	100.227	20.100	-1.835	0.484
816.000	471.404	80.000	20.008	100.201	20.104	-2.903	0.508
824.000	475.324	80.001	20.008	100.208	20.104	-2.937	0.469
832.000	479.349	80.000	20.008	100.222	20.111	-5.052	0.510
840.000	483.326	80.000	20.008	100.203	20.103	-2.770	0.487
848.000	487.432	80.002	20.009	100.243	20.105	-3.330	0.527
856.000	491.374	80.001	20.009	100.213	20.106	-3.490	0.476
864.000	495.312	80.000	20.009	100.206	20.103	-2.709	0.539
872.000	499.183	80.000	20.009	100.209	20.102	-2.442	0.445
880.000	503.200	80.000	20.009	100.188	20.106	-3.637	0.503
888.000	507.073	80.002	20.008	100.190	20.103	-2.683	0.505
896.000	510.997	80.000	20.008	100.211	20.103	-2.703	0.517
904.000	514.923	80.003	20.008	100.190	20.098	-1.001	0.497
912.000	518.914	80.001	20.008	100.212	20.100	-1.815	0.514
920.000	522.891	80.001	20.008	100.209	20.101	-1.875	0.503
928.000	526.878	80.000	20.008	100.218	20.102	-2.383	0.498
936.000	530.760	80.003	20.008	100.211	20.102	-2.482	0.534
944.000	534.762	80.000	20.008	100.219	20.103	-2.722	0.491
952.000	538.795	80.000	20.008	100.211	20.099	-1.281	0.469
960.000	542.908	80.001	20.009	100.203	20.097	-0.867	0.530
968.000	546.900	80.000	20.010	100.192	20.104	-2.823	0.533
976.000	550.810	80.002	20.008	100.202	20.103	-2.683	0.453
984.000	554.801	80.001	20.009	100.199	20.107	-3.917	0.469
992.000	558.775	80.000	20.008	100.226	20.106	-3.563	0.473
1000.000	562.806	80.000	20.008	100.198	20.106	-3.584	0.494
1008.000	566.847	80.001	20.008	100.204	20.103	-2.776	0.501
1016.000	570.859	80.001	20.008	100.207	20.106	-3.450	0.482
1024.001	574.814	80.001	20.008	100.212	20.105	-3.424	0.516
1032.000	578.789	80.001	20.008	100.204	20.106	-3.530	0.495
1040.000	582.679	80.000	20.008	100.193	20.101	-2.056	0.492
1048.000	586.595	80.001	20.008	100.213	20.103	-2.603	0.507
1056.000	590.471	80.002	20.009	100.200	20.105	-3.371	0.479
1064.001	594.555	80.001	20.009	100.212	20.104	-3.010	0.537
1072.000	598.640	80.001	20.008	100.208	20.105	-3.424	0.538
1080.000	602.612	80.001	20.008	100.209	20.104	-2.950	0.476
1088.000	606.728	80.001	20.008	100.224	20.105	-3.364	0.531
1096.000	610.743	80.001	20.009	100.220	20.105	-3.257	0.500
1104.000	614.809	80.001	20.008	100.221	20.104	-2.856	0.507
1112.000	618.768	80.000	20.008	100.219	20.111	-5.299	0.501
1120.000	622.644	80.000	20.009	100.216	20.109	-4.451	0.482
1128.001	626.615	80.001	20.009	100.215	20.106	-3.751	0.516
1136.000	630.548	80.000	20.009	100.204	20.103	-2.683	0.477
1144.000	634.576	80.001	20.009	100.211	20.112	-5.433	0.515
1152.000	638.626	80.002	20.009	100.212	20.108	-4.098	0.531
1160.000	642.736	80.001	20.009	100.207	20.105	-3.230	0.523
1168.000	646.758	80.002	20.009	100.207	20.105	-3.157	0.494
1176.000	650.678	80.000	20.009	100.220	20.109	-4.485	0.462
1184.000	654.526	80.001	20.009	100.224	20.110	-4.739	0.460
1192.000	658.514	80.001	20.009	100.214	20.106	-3.744	0.476
1200.001	662.487	80.001	20.009	100.234	20.110	-4.879	0.517
1208.000	666.606	80.002	20.008	100.200	20.102	-2.483	0.532
1216.000	670.753	80.001	20.008	100.206	20.101	-2.089	0.469
1224.000	674.786	80.001	20.008	100.226	20.100	-1.635	0.499
1232.000	678.883	80.001	20.008	100.219	20.105	-3.363	0.503
1240.000	682.862	80.001	20.008	100.223	20.109	-4.391	0.474
1248.000	686.844	80.001	20.008	100.220	20.107	-3.831	0.474
1256.000	690.889	80.003	20.008	100.223	20.101	-2.022	0.514
1264.001	694.948	80.002	20.008	100.217	20.105	-3.251	0.504
1272.000	698.929	80.000	20.008	100.204	20.105	-3.264	0.495
1280.000	703.047	80.001	20.007	100.226	20.102	-2.182	0.539
1288.000	707.227	80.000	20.008	100.233	20.102	-2.463	0.521
1296.000	711.318	80.001	20.008	100.229	20.098	-1.228	0.505
1304.000	715.454	80.000	20.008	100.234	20.098	-1.222	0.517
1312.000	719.517	80.000	20.008	100.237	20.103	-2.570	0.492
1320.000	723.474	80.000	20.008	100.244	20.101	-2.023	0.512
1328.000	727.613	80.000	20.008	100.247	20.102	-2.456	0.553
1336.000	731.554	80.000	20.008	100.252	20.101	-1.876	0.487
1344.000	735.632	80.000	20.009	100.236	20.101	-2.123	0.509
1352.001	739.712	80.002	20.008	100.223	20.102	-2.430	0.476
1358.000	742.736	80.001	20.008	100.233	20.098	-1.048	0.534