File: Experiments/TGA/TUBS/tga_isotherm/tga_isotherm_n2_iso320_powder_3mg_r2.txt
index	ts	t	weight	tr
[#]	[°C]	[s]	[mg]	[°C]
900	1.23161e+02	9.00000e+02	2.97560e+00	9.00000e+01
1059	2.97177e+02	1.05900e+03	2.80378e+00	3.20000e+02
1214	3.20188e+02	1.21400e+03	2.61261e+00	3.20000e+02
1369	3.22817e+02	1.36900e+03	2.45916e+00	3.20000e+02
1524	3.23087e+02	1.52400e+03	2.32067e+00	3.20000e+02
1679	3.23100e+02	1.67900e+03	2.20061e+00	3.20000e+02
1834	3.23078e+02	1.83400e+03	2.09577e+00	3.20000e+02
1989	3.23071e+02	1.98900e+03	2.00281e+00	3.20000e+02
2144	3.23042e+02	2.14400e+03	1.91977e+00	3.20000e+02
2299	3.23052e+02	2.29900e+03	1.84468e+00	3.20000e+02
2454	3.23045e+02	2.45400e+03	1.77607e+00	3.20000e+02
2609	3.23039e+02	2.60900e+03	1.71333e+00	3.20000e+02
2764	3.23023e+02	2.76400e+03	1.65535e+00	3.20000e+02
2919	3.23043e+02	2.91900e+03	1.60169e+00	3.20000e+02
3074	3.23035e+02	3.07400e+03	1.55158e+00	3.20000e+02
3229	3.23030e+02	3.22900e+03	1.50472e+00	3.20000e+02
3384	3.23022e+02	3.38400e+03	1.46113e+00	3.20000e+02
3539	3.23011e+02	3.53900e+03	1.42040e+00	3.20000e+02
3694	3.23022e+02	3.69400e+03	1.38170e+00	3.20000e+02
3849	3.23012e+02	3.84900e+03	1.34537e+00	3.20000e+02
4004	3.23007e+02	4.00400e+03	1.31046e+00	3.20000e+02
4159	3.23005e+02	4.15900e+03	1.27737e+00	3.20000e+02
4314	3.22993e+02	4.31400e+03	1.24585e+00	3.20000e+02
4469	3.23000e+02	4.46900e+03	1.21566e+00	3.20000e+02
4624	3.23004e+02	4.62400e+03	1.18658e+00	3.20000e+02
4779	3.23005e+02	4.77900e+03	1.15900e+00	3.20000e+02
4934	3.22998e+02	4.93400e+03	1.13279e+00	3.20000e+02
5089	3.23006e+02	5.08900e+03	1.10769e+00	3.20000e+02
5244	3.23006e+02	5.24400e+03	1.08353e+00	3.20000e+02
5399	3.23002e+02	5.39900e+03	1.06052e+00	3.20000e+02
5554	3.22999e+02	5.55400e+03	1.03839e+00	3.20000e+02
5709	3.22992e+02	5.70900e+03	1.01696e+00	3.20000e+02
5864	3.22998e+02	5.86400e+03	9.96581e-01	3.20000e+02
6019	3.23011e+02	6.01900e+03	9.76316e-01	3.20000e+02
6174	3.22996e+02	6.17400e+03	9.57414e-01	3.20000e+02
6329	3.22999e+02	6.32900e+03	9.39012e-01	3.20000e+02
6484	3.23006e+02	6.48400e+03	9.21317e-01	3.20000e+02
6639	3.22998e+02	6.63900e+03	9.04253e-01	3.20000e+02
6794	3.23001e+02	6.79400e+03	8.87932e-01	3.20000e+02
6949	3.23005e+02	6.94900e+03	8.71749e-01	3.20000e+02
7104	3.23013e+02	7.10400e+03	8.56265e-01	3.20000e+02
7259	3.23010e+02	7.25900e+03	8.41169e-01	3.20000e+02
7414	3.23013e+02	7.41400e+03	8.26570e-01	3.20000e+02
7569	3.22994e+02	7.56900e+03	8.12318e-01	3.20000e+02
7724	3.23024e+02	7.72400e+03	7.98697e-01	3.20000e+02
7879	3.23005e+02	7.87900e+03	7.85473e-01	3.20000e+02
8034	3.22985e+02	8.03400e+03	7.72781e-01	3.20000e+02
8189	3.23007e+02	8.18900e+03	7.60192e-01	3.20000e+02
8344	3.23006e+02	8.34400e+03	7.47923e-01	3.20000e+02
8499	3.22989e+02	8.49900e+03	7.36122e-01	3.20000e+02
8654	3.22987e+02	8.65400e+03	7.24774e-01	3.20000e+02
8809	3.22979e+02	8.80900e+03	7.13513e-01	3.20000e+02
8964	3.22995e+02	8.96400e+03	7.02801e-01	3.20000e+02
9119	3.22980e+02	9.11900e+03	6.92277e-01	3.20000e+02
9274	3.22996e+02	9.27400e+03	6.82088e-01	3.20000e+02
9429	3.22991e+02	9.42900e+03	6.72140e-01	3.20000e+02
9584	3.22988e+02	9.58400e+03	6.62358e-01	3.20000e+02
9739	3.22999e+02	9.73900e+03	6.52825e-01	3.20000e+02
9894	3.22993e+02	9.89400e+03	6.43359e-01	3.20000e+02
10049	3.22985e+02	1.00490e+04	6.34543e-01	3.20000e+02
10204	3.22986e+02	1.02040e+04	6.25578e-01	3.20000e+02
10359	3.22976e+02	1.03590e+04	6.17053e-01	3.20000e+02
10514	3.22993e+02	1.05140e+04	6.08809e-01	3.20000e+02
10669	3.22977e+02	1.06690e+04	6.00694e-01	3.20000e+02
10824	3.22988e+02	1.08240e+04	5.93006e-01	3.20000e+02
10979	3.22980e+02	1.09790e+04	5.85020e-01	3.20000e+02
11134	3.22981e+02	1.11340e+04	5.77352e-01	3.20000e+02
11289	3.22977e+02	1.12890e+04	5.70176e-01	3.20000e+02
11444	3.22968e+02	1.14440e+04	5.62713e-01	3.20000e+02
11599	3.22973e+02	1.15990e+04	5.55972e-01	3.20000e+02
11754	3.22984e+02	1.17540e+04	5.48925e-01	3.20000e+02
11909	3.22980e+02	1.19090e+04	5.42293e-01	3.20000e+02
12064	3.22973e+02	1.20640e+04	5.35650e-01	3.20000e+02
12219	3.22979e+02	1.22190e+04	5.29371e-01	3.20000e+02
12374	3.22985e+02	1.23740e+04	5.22992e-01	3.20000e+02
12529	3.22980e+02	1.25290e+04	5.16982e-01	3.20000e+02
12684	3.22966e+02	1.26840e+04	5.10899e-01	3.20000e+02
12839	3.22985e+02	1.28390e+04	5.05085e-01	3.20000e+02
12994	3.22968e+02	1.29940e+04	4.99513e-01	3.20000e+02
13149	3.22957e+02	1.31490e+04	4.94138e-01	3.20000e+02
13304	3.22965e+02	1.33040e+04	4.88404e-01	3.20000e+02
13459	3.22953e+02	1.34590e+04	4.83064e-01	3.20000e+02
13614	3.22941e+02	1.36140e+04	4.77696e-01	3.20000e+02
13769	3.22949e+02	1.37690e+04	4.72800e-01	3.20000e+02
13924	3.22928e+02	1.39240e+04	4.67541e-01	3.20000e+02
14079	3.22935e+02	1.40790e+04	4.62699e-01	3.20000e+02
14234	3.22927e+02	1.42340e+04	4.57916e-01	3.20000e+02
14389	3.22933e+02	1.43890e+04	4.52893e-01	3.20000e+02
14544	3.22921e+02	1.45440e+04	4.48258e-01	3.20000e+02
14699	3.22917e+02	1.46990e+04	4.43549e-01	3.20000e+02
14854	3.22911e+02	1.48540e+04	4.39463e-01	3.20000e+02
15009	3.22909e+02	1.50090e+04	4.35139e-01	3.20000e+02
15164	3.22890e+02	1.51640e+04	4.30662e-01	3.20000e+02
15319	3.22895e+02	1.53190e+04	4.26374e-01	3.20000e+02
15474	3.22873e+02	1.54740e+04	4.22181e-01	3.20000e+02
15629	3.22865e+02	1.56290e+04	4.18284e-01	3.20000e+02
15784	3.22847e+02	1.57840e+04	4.13731e-01	3.20000e+02
15939	3.22828e+02	1.59390e+04	4.10128e-01	3.20000e+02
16094	3.22799e+02	1.60940e+04	4.06104e-01	3.20000e+02
16249	3.22791e+02	1.62490e+04	4.02414e-01	3.20000e+02
16404	3.22772e+02	1.64040e+04	3.98631e-01	3.20000e+02
16559	3.22759e+02	1.65590e+04	3.94953e-01	3.20000e+02
16714	3.22762e+02	1.67140e+04	3.91524e-01	3.20000e+02
16869	3.22746e+02	1.68690e+04	3.88153e-01	3.20000e+02
17024	3.22750e+02	1.70240e+04	3.84480e-01	3.20000e+02
17179	3.22743e+02	1.71790e+04	3.81204e-01	3.20000e+02
17334	3.22744e+02	1.73340e+04	3.77781e-01	3.20000e+02
17489	3.22757e+02	1.74890e+04	3.74293e-01	3.20000e+02
17644	3.22751e+02	1.76440e+04	3.71305e-01	3.20000e+02
17799	3.22737e+02	1.77990e+04	3.68058e-01	3.20000e+02
17954	3.22727e+02	1.79540e+04	3.64932e-01	3.20000e+02
18109	3.22736e+02	1.81090e+04	3.61905e-01	3.20000e+02
18264	3.22733e+02	1.82640e+04	3.58996e-01	3.20000e+02
18419	3.22717e+02	1.84190e+04	3.55902e-01	3.20000e+02
18574	3.22722e+02	1.85740e+04	3.52946e-01	3.20000e+02
18729	3.22726e+02	1.87290e+04	3.50359e-01	3.20000e+02
18884	3.22725e+02	1.88840e+04	3.47305e-01	3.20000e+02
19039	3.22728e+02	1.90390e+04	3.44752e-01	3.20000e+02
19194	3.22729e+02	1.91940e+04	3.42094e-01	3.20000e+02
19349	3.22726e+02	1.93490e+04	3.39027e-01	3.20000e+02
19504	3.22733e+02	1.95040e+04	3.36569e-01	3.20000e+02
19659	3.22731e+02	1.96590e+04	3.34046e-01	3.20000e+02
19814	3.22717e+02	1.98140e+04	3.31511e-01	3.20000e+02
19969	3.22730e+02	1.99690e+04	3.29026e-01	3.20000e+02
20124	3.22724e+02	2.01240e+04	3.26535e-01	3.20000e+02
20279	3.22728e+02	2.02790e+04	3.24001e-01	3.20000e+02
20434	3.22723e+02	2.04340e+04	3.21652e-01	3.20000e+02
20589	3.22731e+02	2.05890e+04	3.19111e-01	3.20000e+02
20744	3.22722e+02	2.07440e+04	3.16807e-01	3.20000e+02
20899	3.22716e+02	2.08990e+04	3.14443e-01	3.20000e+02
21054	3.22719e+02	2.10540e+04	3.12122e-01	3.20000e+02
21209	3.22728e+02	2.12090e+04	3.09852e-01	3.20000e+02
21364	3.22718e+02	2.13640e+04	3.07660e-01	3.20000e+02
21519	3.22706e+02	2.15190e+04	3.05317e-01	3.20000e+02
21674	3.22731e+02	2.16740e+04	3.03262e-01	3.20000e+02
21829	3.22725e+02	2.18290e+04	3.00954e-01	3.20000e+02
21984	3.22715e+02	2.19840e+04	2.99144e-01	3.20000e+02
22139	3.22717e+02	2.21390e+04	2.96639e-01	3.20000e+02
22294	3.22714e+02	2.22940e+04	2.94785e-01	3.20000e+02
22449	3.22717e+02	2.24490e+04	2.92927e-01	3.20000e+02
22604	3.22726e+02	2.26040e+04	2.90878e-01	3.20000e+02
22759	3.22718e+02	2.27590e+04	2.88941e-01	3.20000e+02
22914	3.22728e+02	2.29140e+04	2.87155e-01	3.20000e+02
23069	3.22720e+02	2.30690e+04	2.85216e-01	3.20000e+02
23224	3.22720e+02	2.32240e+04	2.83460e-01	3.20000e+02
23379	3.22720e+02	2.33790e+04	2.81297e-01	3.20000e+02
23534	3.22725e+02	2.35340e+04	2.79669e-01	3.20000e+02
23689	3.22721e+02	2.36890e+04	2.77848e-01	3.20000e+02
23844	3.22719e+02	2.38440e+04	2.76074e-01	3.20000e+02
23999	3.22728e+02	2.39990e+04	2.74156e-01	3.20000e+02
24154	3.22716e+02	2.41540e+04	2.72493e-01	3.20000e+02
24309	3.22722e+02	2.43090e+04	2.70931e-01	3.20000e+02
24464	3.22725e+02	2.44640e+04	2.69292e-01	3.20000e+02
24619	3.22715e+02	2.46190e+04	2.67955e-01	3.20000e+02
24774	3.22739e+02	2.47740e+04	2.66227e-01	3.20000e+02
24929	3.22735e+02	2.49290e+04	2.64425e-01	3.20000e+02
25084	3.22723e+02	2.50840e+04	2.62978e-01	3.20000e+02
25239	3.22733e+02	2.52390e+04	2.61456e-01	3.20000e+02
25394	3.22716e+02	2.53940e+04	2.59781e-01	3.20000e+02
25549	3.22724e+02	2.55490e+04	2.58378e-01	3.20000e+02
25704	3.22710e+02	2.57040e+04	2.56787e-01	3.20000e+02
25859	3.22724e+02	2.58590e+04	2.55364e-01	3.20000e+02
26014	3.22726e+02	2.60140e+04	2.53746e-01	3.20000e+02
26169	3.22727e+02	2.61690e+04	2.52352e-01	3.20000e+02
26324	3.22731e+02	2.63240e+04	2.50878e-01	3.20000e+02
26479	3.22732e+02	2.64790e+04	2.49461e-01	3.20000e+02
26634	3.22723e+02	2.66340e+04	2.47891e-01	3.20000e+02
26789	3.22725e+02	2.67890e+04	2.46494e-01	3.20000e+02
26944	3.22729e+02	2.69440e+04	2.45256e-01	3.20000e+02
27099	3.22730e+02	2.70990e+04	2.44144e-01	3.20000e+02
27254	3.22733e+02	2.72540e+04	2.42654e-01	3.20000e+02
27409	3.22724e+02	2.74090e+04	2.41305e-01	3.20000e+02
27564	3.22750e+02	2.75640e+04	2.40120e-01	3.20000e+02
27719	3.22721e+02	2.77190e+04	2.38728e-01	3.20000e+02
27874	3.22726e+02	2.78740e+04	2.37623e-01	3.20000e+02
28029	3.22727e+02	2.80290e+04	2.36002e-01	3.20000e+02
28184	3.22716e+02	2.81840e+04	2.34690e-01	3.20000e+02
28339	3.22724e+02	2.83390e+04	2.33629e-01	3.20000e+02
28494	3.22724e+02	2.84940e+04	2.32408e-01	3.20000e+02
28649	3.22723e+02	2.86490e+04	2.31391e-01	3.20000e+02
28804	3.22730e+02	2.88040e+04	2.29944e-01	3.20000e+02
28959	3.22736e+02	2.89590e+04	2.28690e-01	3.20000e+02
29114	3.22733e+02	2.91140e+04	2.27790e-01	3.20000e+02
29269	3.22732e+02	2.92690e+04	2.26765e-01	3.20000e+02
29424	3.22732e+02	2.94240e+04	2.25482e-01	3.20000e+02
29579	3.22728e+02	2.95790e+04	2.24360e-01	3.20000e+02
29731	3.22727e+02	2.97310e+04	2.23093e-01	3.20000e+02