File: Experiments/TGA/TUBS/tga_isotherm/tga_isotherm_n2_iso320_piece_3mg_r3.txt
index	ts	t	weight	tr
[#]	[°C]	[s]	[mg]	[°C]
900	1.22187e+02	9.00000e+02	2.95461e+00	9.00000e+01
1059	2.95987e+02	1.05900e+03	2.87693e+00	3.20000e+02
1214	3.20404e+02	1.21400e+03	2.73720e+00	3.20000e+02
1369	3.23179e+02	1.36900e+03	2.62472e+00	3.20000e+02
1524	3.23472e+02	1.52400e+03	2.51437e+00	3.20000e+02
1679	3.23447e+02	1.67900e+03	2.40791e+00	3.20000e+02
1834	3.23414e+02	1.83400e+03	2.30709e+00	3.20000e+02
1989	3.23401e+02	1.98900e+03	2.21299e+00	3.20000e+02
2144	3.23384e+02	2.14400e+03	2.12426e+00	3.20000e+02
2299	3.23374e+02	2.29900e+03	2.04275e+00	3.20000e+02
2454	3.23371e+02	2.45400e+03	1.96684e+00	3.20000e+02
2609	3.23365e+02	2.60900e+03	1.89669e+00	3.20000e+02
2764	3.23377e+02	2.76400e+03	1.83113e+00	3.20000e+02
2919	3.23366e+02	2.91900e+03	1.76986e+00	3.20000e+02
3074	3.23365e+02	3.07400e+03	1.71256e+00	3.20000e+02
3229	3.23362e+02	3.22900e+03	1.65871e+00	3.20000e+02
3384	3.23364e+02	3.38400e+03	1.60833e+00	3.20000e+02
3539	3.23363e+02	3.53900e+03	1.56083e+00	3.20000e+02
3694	3.23370e+02	3.69400e+03	1.51542e+00	3.20000e+02
3849	3.23344e+02	3.84900e+03	1.47272e+00	3.20000e+02
4004	3.23355e+02	4.00400e+03	1.43275e+00	3.20000e+02
4159	3.23353e+02	4.15900e+03	1.39424e+00	3.20000e+02
4314	3.23365e+02	4.31400e+03	1.35737e+00	3.20000e+02
4469	3.23350e+02	4.46900e+03	1.32229e+00	3.20000e+02
4624	3.23344e+02	4.62400e+03	1.28861e+00	3.20000e+02
4779	3.23343e+02	4.77900e+03	1.25687e+00	3.20000e+02
4934	3.23346e+02	4.93400e+03	1.22635e+00	3.20000e+02
5089	3.23340e+02	5.08900e+03	1.19677e+00	3.20000e+02
5244	3.23346e+02	5.24400e+03	1.16837e+00	3.20000e+02
5399	3.23343e+02	5.39900e+03	1.14103e+00	3.20000e+02
5554	3.23326e+02	5.55400e+03	1.11477e+00	3.20000e+02
5709	3.23324e+02	5.70900e+03	1.08955e+00	3.20000e+02
5864	3.23340e+02	5.86400e+03	1.06514e+00	3.20000e+02
6019	3.23309e+02	6.01900e+03	1.04179e+00	3.20000e+02
6174	3.23316e+02	6.17400e+03	1.01936e+00	3.20000e+02
6329	3.23317e+02	6.32900e+03	9.97405e-01	3.20000e+02
6484	3.23317e+02	6.48400e+03	9.76296e-01	3.20000e+02
6639	3.23300e+02	6.63900e+03	9.55548e-01	3.20000e+02
6794	3.23306e+02	6.79400e+03	9.35518e-01	3.20000e+02
6949	3.23308e+02	6.94900e+03	9.16186e-01	3.20000e+02
7104	3.23310e+02	7.10400e+03	8.97711e-01	3.20000e+02
7259	3.23323e+02	7.25900e+03	8.79587e-01	3.20000e+02
7414	3.23313e+02	7.41400e+03	8.62222e-01	3.20000e+02
7569	3.23316e+02	7.56900e+03	8.45279e-01	3.20000e+02
7724	3.23316e+02	7.72400e+03	8.29153e-01	3.20000e+02
7879	3.23324e+02	7.87900e+03	8.13283e-01	3.20000e+02
8034	3.23322e+02	8.03400e+03	7.98153e-01	3.20000e+02
8189	3.23311e+02	8.18900e+03	7.83302e-01	3.20000e+02
8344	3.23307e+02	8.34400e+03	7.68944e-01	3.20000e+02
8499	3.23321e+02	8.49900e+03	7.55170e-01	3.20000e+02
8654	3.23316e+02	8.65400e+03	7.41700e-01	3.20000e+02
8809	3.23322e+02	8.80900e+03	7.28621e-01	3.20000e+02
8964	3.23316e+02	8.96400e+03	7.16056e-01	3.20000e+02
9119	3.23316e+02	9.11900e+03	7.03924e-01	3.20000e+02
9274	3.23304e+02	9.27400e+03	6.91998e-01	3.20000e+02
9429	3.23320e+02	9.42900e+03	6.80307e-01	3.20000e+02
9584	3.23315e+02	9.58400e+03	6.68977e-01	3.20000e+02
9739	3.23319e+02	9.73900e+03	6.57877e-01	3.20000e+02
9894	3.23318e+02	9.89400e+03	6.47123e-01	3.20000e+02
10049	3.23319e+02	1.00490e+04	6.36936e-01	3.20000e+02
10204	3.23316e+02	1.02040e+04	6.26643e-01	3.20000e+02
10359	3.23321e+02	1.03590e+04	6.16605e-01	3.20000e+02
10514	3.23319e+02	1.05140e+04	6.07094e-01	3.20000e+02
10669	3.23312e+02	1.06690e+04	5.97911e-01	3.20000e+02
10824	3.23307e+02	1.08240e+04	5.88796e-01	3.20000e+02
10979	3.23306e+02	1.09790e+04	5.80268e-01	3.20000e+02
11134	3.23294e+02	1.11340e+04	5.71508e-01	3.20000e+02
11289	3.23296e+02	1.12890e+04	5.63086e-01	3.20000e+02
11444	3.23295e+02	1.14440e+04	5.54939e-01	3.20000e+02
11599	3.23310e+02	1.15990e+04	5.47036e-01	3.20000e+02
11754	3.23317e+02	1.17540e+04	5.39227e-01	3.20000e+02
11909	3.23317e+02	1.19090e+04	5.31442e-01	3.20000e+02
12064	3.23312e+02	1.20640e+04	5.23877e-01	3.20000e+02
12219	3.23312e+02	1.22190e+04	5.16756e-01	3.20000e+02
12374	3.23325e+02	1.23740e+04	5.09580e-01	3.20000e+02
12529	3.23330e+02	1.25290e+04	5.02724e-01	3.20000e+02
12684	3.23308e+02	1.26840e+04	4.95865e-01	3.20000e+02
12839	3.23313e+02	1.28390e+04	4.89263e-01	3.20000e+02
12994	3.23307e+02	1.29940e+04	4.82855e-01	3.20000e+02
13149	3.23328e+02	1.31490e+04	4.76663e-01	3.20000e+02
13304	3.23313e+02	1.33040e+04	4.70365e-01	3.20000e+02
13459	3.23331e+02	1.34590e+04	4.64271e-01	3.20000e+02
13614	3.23323e+02	1.36140e+04	4.58273e-01	3.20000e+02
13769	3.23314e+02	1.37690e+04	4.52570e-01	3.20000e+02
13924	3.23318e+02	1.39240e+04	4.46729e-01	3.20000e+02
14079	3.23319e+02	1.40790e+04	4.41250e-01	3.20000e+02
14234	3.23301e+02	1.42340e+04	4.35762e-01	3.20000e+02
14389	3.23309e+02	1.43890e+04	4.30482e-01	3.20000e+02
14544	3.23307e+02	1.45440e+04	4.25233e-01	3.20000e+02
14699	3.23294e+02	1.46990e+04	4.19881e-01	3.20000e+02
14854	3.23293e+02	1.48540e+04	4.14967e-01	3.20000e+02
15009	3.23282e+02	1.50090e+04	4.10178e-01	3.20000e+02
15164	3.23266e+02	1.51640e+04	4.05183e-01	3.20000e+02
15319	3.23269e+02	1.53190e+04	4.00421e-01	3.20000e+02
15474	3.23264e+02	1.54740e+04	3.95688e-01	3.20000e+02
15629	3.23267e+02	1.56290e+04	3.91243e-01	3.20000e+02
15784	3.23273e+02	1.57840e+04	3.86588e-01	3.20000e+02
15939	3.23265e+02	1.59390e+04	3.82341e-01	3.20000e+02
16094	3.23258e+02	1.60940e+04	3.77847e-01	3.20000e+02
16249	3.23260e+02	1.62490e+04	3.73537e-01	3.20000e+02
16404	3.23255e+02	1.64040e+04	3.69401e-01	3.20000e+02
16559	3.23263e+02	1.65590e+04	3.65325e-01	3.20000e+02
16714	3.23252e+02	1.67140e+04	3.61576e-01	3.20000e+02
16869	3.23253e+02	1.68690e+04	3.57577e-01	3.20000e+02
17024	3.23250e+02	1.70240e+04	3.53676e-01	3.20000e+02
17179	3.23233e+02	1.71790e+04	3.50189e-01	3.20000e+02
17334	3.23254e+02	1.73340e+04	3.46347e-01	3.20000e+02
17489	3.23241e+02	1.74890e+04	3.42575e-01	3.20000e+02
17644	3.23245e+02	1.76440e+04	3.38894e-01	3.20000e+02
17799	3.23240e+02	1.77990e+04	3.35438e-01	3.20000e+02
17954	3.23251e+02	1.79540e+04	3.31967e-01	3.20000e+02
18109	3.23245e+02	1.81090e+04	3.28681e-01	3.20000e+02
18264	3.23234e+02	1.82640e+04	3.25338e-01	3.20000e+02
18419	3.23242e+02	1.84190e+04	3.21824e-01	3.20000e+02
18574	3.23228e+02	1.85740e+04	3.18840e-01	3.20000e+02
18729	3.23233e+02	1.87290e+04	3.15827e-01	3.20000e+02
18884	3.23227e+02	1.88840e+04	3.12441e-01	3.20000e+02
19039	3.23243e+02	1.90390e+04	3.09608e-01	3.20000e+02
19194	3.23234e+02	1.91940e+04	3.06549e-01	3.20000e+02
19349	3.23242e+02	1.93490e+04	3.03554e-01	3.20000e+02
19504	3.23246e+02	1.95040e+04	3.00807e-01	3.20000e+02
19659	3.23240e+02	1.96590e+04	2.97909e-01	3.20000e+02
19814	3.23233e+02	1.98140e+04	2.94996e-01	3.20000e+02
19969	3.23230e+02	1.99690e+04	2.92190e-01	3.20000e+02
20124	3.23229e+02	2.01240e+04	2.89647e-01	3.20000e+02
20279	3.23236e+02	2.02790e+04	2.86944e-01	3.20000e+02
20434	3.23230e+02	2.04340e+04	2.84349e-01	3.20000e+02
20589	3.23224e+02	2.05890e+04	2.81686e-01	3.20000e+02
20744	3.23227e+02	2.07440e+04	2.79299e-01	3.20000e+02
20899	3.23218e+02	2.08990e+04	2.76639e-01	3.20000e+02
21054	3.23234e+02	2.10540e+04	2.74087e-01	3.20000e+02
21209	3.23226e+02	2.12090e+04	2.71445e-01	3.20000e+02
21364	3.23215e+02	2.13640e+04	2.68912e-01	3.20000e+02
21519	3.23211e+02	2.15190e+04	2.66407e-01	3.20000e+02
21674	3.23208e+02	2.16740e+04	2.64104e-01	3.20000e+02
21829	3.23225e+02	2.18290e+04	2.61794e-01	3.20000e+02
21984	3.23226e+02	2.19840e+04	2.59882e-01	3.20000e+02
22139	3.23220e+02	2.21390e+04	2.57364e-01	3.20000e+02
22294	3.23228e+02	2.22940e+04	2.55292e-01	3.20000e+02
22449	3.23216e+02	2.24490e+04	2.53226e-01	3.20000e+02
22604	3.23221e+02	2.26040e+04	2.51027e-01	3.20000e+02
22759	3.23205e+02	2.27590e+04	2.48889e-01	3.20000e+02
22914	3.23219e+02	2.29140e+04	2.46824e-01	3.20000e+02
23069	3.23219e+02	2.30690e+04	2.44779e-01	3.20000e+02
23224	3.23219e+02	2.32240e+04	2.42889e-01	3.20000e+02
23379	3.23220e+02	2.33790e+04	2.40895e-01	3.20000e+02
23534	3.23217e+02	2.35340e+04	2.38845e-01	3.20000e+02
23689	3.23221e+02	2.36890e+04	2.37070e-01	3.20000e+02
23844	3.23219e+02	2.38440e+04	2.35003e-01	3.20000e+02
23999	3.23220e+02	2.39990e+04	2.33094e-01	3.20000e+02
24154	3.23224e+02	2.41540e+04	2.31400e-01	3.20000e+02
24309	3.23220e+02	2.43090e+04	2.29620e-01	3.20000e+02
24464	3.23213e+02	2.44640e+04	2.27774e-01	3.20000e+02
24619	3.23211e+02	2.46190e+04	2.25996e-01	3.20000e+02
24774	3.23216e+02	2.47740e+04	2.24406e-01	3.20000e+02
24929	3.23223e+02	2.49290e+04	2.22604e-01	3.20000e+02
25084	3.23203e+02	2.50840e+04	2.20804e-01	3.20000e+02
25239	3.23213e+02	2.52390e+04	2.19300e-01	3.20000e+02
25394	3.23222e+02	2.53940e+04	2.17604e-01	3.20000e+02
25549	3.23218e+02	2.55490e+04	2.16168e-01	3.20000e+02
25704	3.23213e+02	2.57040e+04	2.14540e-01	3.20000e+02
25859	3.23215e+02	2.58590e+04	2.12906e-01	3.20000e+02
26014	3.23224e+02	2.60140e+04	2.11321e-01	3.20000e+02
26169	3.23213e+02	2.61690e+04	2.09836e-01	3.20000e+02
26324	3.23221e+02	2.63240e+04	2.08130e-01	3.20000e+02
26479	3.23214e+02	2.64790e+04	2.06627e-01	3.20000e+02
26634	3.23230e+02	2.66340e+04	2.05177e-01	3.20000e+02
26789	3.23208e+02	2.67890e+04	2.03757e-01	3.20000e+02
26944	3.23221e+02	2.69440e+04	2.02409e-01	3.20000e+02
27099	3.23210e+02	2.70990e+04	2.01146e-01	3.20000e+02
27254	3.23205e+02	2.72540e+04	1.99601e-01	3.20000e+02
27409	3.23200e+02	2.74090e+04	1.98242e-01	3.20000e+02
27564	3.23206e+02	2.75640e+04	1.96891e-01	3.20000e+02
27719	3.23215e+02	2.77190e+04	1.95452e-01	3.20000e+02
27874	3.23215e+02	2.78740e+04	1.94193e-01	3.20000e+02
28029	3.23222e+02	2.80290e+04	1.92739e-01	3.20000e+02
28184	3.23205e+02	2.81840e+04	1.91392e-01	3.20000e+02
28339	3.23215e+02	2.83390e+04	1.90203e-01	3.20000e+02
28494	3.23216e+02	2.84940e+04	1.89010e-01	3.20000e+02
28649	3.23214e+02	2.86490e+04	1.87655e-01	3.20000e+02
28804	3.23210e+02	2.88040e+04	1.85995e-01	3.20000e+02
28959	3.23202e+02	2.89590e+04	1.84765e-01	3.20000e+02
29114	3.23196e+02	2.91140e+04	1.83603e-01	3.20000e+02
29269	3.23203e+02	2.92690e+04	1.82474e-01	3.20000e+02
29424	3.23209e+02	2.94240e+04	1.81619e-01	3.20000e+02
29579	3.23219e+02	2.95790e+04	1.80090e-01	3.20000e+02
29731	3.23227e+02	2.97310e+04	1.78766e-01	3.20000e+02